\n INPUT PARAMETERS:\n
 RADIATION SCHEME:            4  streams\n
 w-grid:         111   290.000000       400.000000    
 equally spaced z-grid
 z-grid:          81   2.50000004E-02   80.0000000    
  measurement point: index           1  altitude=   2.50000004E-02
 idate =     20231015  esfact(1) =    1.00000000    
 air temperature: USSA, 1976
 air concentrations: USSA, 1976
 ozone profile: USSA, 1976
 DATAE1/SUN/susim_hi.flx
 DATAE1/SUN/atlas3_1994_317_a.dat        
 DATAE1/SUN/neckel.flx                   
 DATAE1/SUN/sao2010.solref.converted     
 aerosols:  Elterman (1968) continental profile
 solar zenith angle =    24.7999992    
 \n SPECTRAL IRRADIANCE (W m-2 nm-1):\n
 LOWER WVL  UPPER WVL  DIRECT     DIFFUSE DOWN  DIFFUSE UP  TOTAL DOWNWELLING
 290.00     291.00     0.000E+00  0.000E+00     0.000E+00   0.000E+00
 291.00     292.00     3.788E-06  5.982E-06     2.931E-06   9.770E-06
 292.00     293.00     1.091E-05  1.761E-05     8.555E-06   2.852E-05
 293.00     294.00     3.723E-05  6.138E-05     2.958E-05   9.861E-05
 294.00     295.00     8.060E-05  1.352E-04     6.474E-05   2.158E-04
 295.00     296.00     2.322E-04  3.978E-04     1.890E-04   6.299E-04
 296.00     297.00     4.537E-04  7.919E-04     3.737E-04   1.246E-03
 297.00     298.00     9.607E-04  1.704E-03     7.995E-04   2.665E-03
 298.00     299.00     1.246E-03  2.242E-03     1.046E-03   3.488E-03
 299.00     300.00     3.011E-03  5.487E-03     2.549E-03   8.498E-03
 300.00     301.00     3.005E-03  5.527E-03     2.560E-03   8.533E-03
 301.00     302.00     6.377E-03  1.188E-02     5.476E-03   1.825E-02
 302.00     303.00     8.332E-03  1.558E-02     7.174E-03   2.391E-02
 303.00     304.00     1.499E-02  2.830E-02     1.299E-02   4.330E-02
 304.00     305.00     1.699E-02  3.207E-02     1.472E-02   4.907E-02
 305.00     306.00     2.353E-02  4.479E-02     2.050E-02   6.832E-02
 306.00     307.00     2.523E-02  4.781E-02     2.191E-02   7.305E-02
 307.00     308.00     3.787E-02  7.224E-02     3.303E-02   1.101E-01
 308.00     309.00     4.335E-02  8.212E-02     3.764E-02   1.255E-01
 309.00     310.00     3.933E-02  7.456E-02     3.417E-02   1.139E-01
 310.00     311.00     5.482E-02  1.036E-01     4.753E-02   1.584E-01
 311.00     312.00     7.189E-02  1.349E-01     6.202E-02   2.067E-01
 312.00     313.00     7.183E-02  1.348E-01     6.200E-02   2.067E-01
 313.00     314.00     8.261E-02  1.533E-01     7.076E-02   2.359E-01
 314.00     315.00     8.426E-02  1.563E-01     7.216E-02   2.405E-01
 315.00     316.00     8.810E-02  1.612E-01     7.480E-02   2.493E-01
 316.00     317.00     8.924E-02  1.629E-01     7.564E-02   2.521E-01
 317.00     318.00     1.275E-01  2.292E-01     1.070E-01   3.567E-01
 318.00     319.00     1.019E-01  1.825E-01     8.531E-02   2.844E-01
 319.00     320.00     1.257E-01  2.223E-01     1.044E-01   3.479E-01
 320.00     321.00     1.546E-01  2.700E-01     1.274E-01   4.246E-01
 321.00     322.00     1.330E-01  2.317E-01     1.094E-01   3.648E-01
 322.00     323.00     1.349E-01  2.292E-01     1.092E-01   3.641E-01
 323.00     324.00     1.408E-01  2.393E-01     1.140E-01   3.801E-01
 324.00     325.00     1.668E-01  2.791E-01     1.338E-01   4.459E-01
 325.00     326.00     1.887E-01  3.103E-01     1.497E-01   4.990E-01
 326.00     327.00     2.306E-01  3.780E-01     1.826E-01   6.086E-01
 327.00     328.00     2.167E-01  3.487E-01     1.696E-01   5.655E-01
 328.00     329.00     2.019E-01  3.202E-01     1.566E-01   5.221E-01
 329.00     330.00     2.640E-01  4.162E-01     2.041E-01   6.802E-01
 330.00     331.00     2.422E-01  3.750E-01     1.851E-01   6.172E-01
 331.00     332.00     2.414E-01  3.682E-01     1.829E-01   6.096E-01
 332.00     333.00     2.396E-01  3.626E-01     1.807E-01   6.022E-01
 333.00     334.00     2.271E-01  3.379E-01     1.695E-01   5.650E-01
 334.00     335.00     2.558E-01  3.759E-01     1.895E-01   6.316E-01
 335.00     336.00     2.612E-01  3.799E-01     1.923E-01   6.411E-01
 336.00     337.00     2.059E-01  2.950E-01     1.503E-01   5.009E-01
 337.00     338.00     2.278E-01  3.214E-01     1.648E-01   5.492E-01
 338.00     339.00     2.422E-01  3.383E-01     1.741E-01   5.804E-01
 339.00     340.00     2.652E-01  3.657E-01     1.893E-01   6.310E-01
 340.00     341.00     2.857E-01  3.884E-01     2.022E-01   6.741E-01
 341.00     342.00     2.555E-01  3.435E-01     1.797E-01   5.990E-01
 342.00     343.00     2.851E-01  3.784E-01     1.991E-01   6.635E-01
 343.00     344.00     2.983E-01  3.907E-01     2.067E-01   6.889E-01
 344.00     345.00     2.105E-01  2.721E-01     1.448E-01   4.827E-01
 345.00     346.00     2.903E-01  3.712E-01     1.985E-01   6.615E-01
 346.00     347.00     2.734E-01  3.450E-01     1.855E-01   6.185E-01
 347.00     348.00     2.689E-01  3.353E-01     1.813E-01   6.042E-01
 348.00     349.00     2.975E-01  3.665E-01     1.992E-01   6.640E-01
 349.00     350.00     2.509E-01  3.054E-01     1.669E-01   5.563E-01
 350.00     351.00     3.535E-01  4.252E-01     2.336E-01   7.787E-01
 351.00     352.00     3.066E-01  3.644E-01     2.013E-01   6.709E-01
 352.00     353.00     2.781E-01  3.268E-01     1.815E-01   6.049E-01
 353.00     354.00     3.368E-01  3.912E-01     2.184E-01   7.280E-01
 354.00     355.00     3.667E-01  4.211E-01     2.363E-01   7.878E-01
 355.00     356.00     3.447E-01  3.913E-01     2.208E-01   7.360E-01
 356.00     357.00     3.217E-01  3.612E-01     2.049E-01   6.828E-01
 357.00     358.00     2.751E-01  3.054E-01     1.741E-01   5.805E-01
 358.00     359.00     2.135E-01  2.344E-01     1.344E-01   4.478E-01
 359.00     360.00     3.612E-01  3.923E-01     2.260E-01   7.535E-01
 360.00     361.00     3.366E-01  3.616E-01     2.095E-01   6.982E-01
 361.00     362.00     3.051E-01  3.242E-01     1.888E-01   6.293E-01
 362.00     363.00     3.601E-01  3.787E-01     2.216E-01   7.388E-01
 363.00     364.00     3.220E-01  3.350E-01     1.971E-01   6.571E-01
 364.00     365.00     3.531E-01  3.635E-01     2.150E-01   7.166E-01
 365.00     366.00     4.324E-01  4.405E-01     2.619E-01   8.729E-01
 366.00     367.00     4.599E-01  4.637E-01     2.771E-01   9.236E-01
 367.00     368.00     4.388E-01  4.379E-01     2.630E-01   8.767E-01
 368.00     369.00     3.873E-01  3.827E-01     2.310E-01   7.699E-01
 369.00     370.00     4.668E-01  4.565E-01     2.770E-01   9.233E-01
 370.00     371.00     4.255E-01  4.120E-01     2.512E-01   8.375E-01
 371.00     372.00     4.891E-01  4.689E-01     2.874E-01   9.580E-01
 372.00     373.00     3.629E-01  3.446E-01     2.122E-01   7.074E-01
 373.00     374.00     3.295E-01  3.098E-01     1.918E-01   6.393E-01
 374.00     375.00     3.632E-01  3.382E-01     2.104E-01   7.015E-01
 375.00     376.00     4.116E-01  3.796E-01     2.374E-01   7.912E-01
 376.00     377.00     4.128E-01  3.771E-01     2.370E-01   7.899E-01
 377.00     378.00     4.937E-01  4.468E-01     2.821E-01   9.404E-01
 378.00     379.00     5.403E-01  4.844E-01     3.074E-01   1.025E+00
 379.00     380.00     4.014E-01  3.565E-01     2.274E-01   7.579E-01
 380.00     381.00     4.847E-01  4.266E-01     2.734E-01   9.113E-01
 381.00     382.00     4.573E-01  3.988E-01     2.568E-01   8.562E-01
 382.00     383.00     3.059E-01  2.644E-01     1.711E-01   5.704E-01
 383.00     384.00     2.697E-01  2.310E-01     1.502E-01   5.007E-01
 384.00     385.00     4.063E-01  3.449E-01     2.254E-01   7.513E-01
 385.00     386.00     4.036E-01  3.395E-01     2.229E-01   7.431E-01
 386.00     387.00     4.129E-01  3.444E-01     2.272E-01   7.573E-01
 387.00     388.00     3.852E-01  3.185E-01     2.111E-01   7.037E-01
 388.00     389.00     3.875E-01  3.176E-01     2.116E-01   7.052E-01
 389.00     390.00     4.905E-01  3.986E-01     2.667E-01   8.891E-01
 390.00     391.00     4.836E-01  3.896E-01     2.619E-01   8.731E-01
 391.00     392.00     5.757E-01  4.599E-01     3.107E-01   1.036E+00
 392.00     393.00     4.333E-01  3.432E-01     2.329E-01   7.765E-01
 393.00     394.00     1.890E-01  1.485E-01     1.013E-01   3.375E-01
 394.00     395.00     4.463E-01  3.477E-01     2.382E-01   7.941E-01
 395.00     396.00     5.762E-01  4.453E-01     3.064E-01   1.021E+00
 396.00     397.00     3.395E-01  2.602E-01     1.799E-01   5.997E-01
 397.00     398.00     3.931E-01  2.988E-01     2.076E-01   6.919E-01
 398.00     399.00     6.777E-01  5.111E-01     3.566E-01   1.189E+00
 399.00     400.00     7.072E-01  5.291E-01     3.709E-01   1.236E+00
 \nWEIGHTED IRRADIANCES (W m-2)
 (with normalized action spectra)\n
   1 UV-B, 280-315 nm                          1.699E+00
   2 UV-B*, 280-320 nm                         3.189E+00
   3 UV-A, 315-400 nm                          5.715E+01
   4 vis+, > 400 nm                            0.000E+00
   5 Gaussian, 305 nm, 10 nm FWHM              7.239E-02
   6 Gaussian, 320 nm, 10 nm FWHM              3.580E-01
   7 Gaussian, 340 nm, 10 nm FWHM              6.096E-01
   8 Gaussian, 380 nm, 10 nm FWHM              7.875E-01
   9 RB Meter, model 501                       4.923E-01
  10 Eppley UV Photometer                      4.980E+01
  11 PAR, 400-700 nm, umol m-2 s-1             0.000E+00
  12 Exponential decay, 14 nm/10               5.733E-01
  13 DNA damage, in vitro (Setlow, 1974)       5.152E-03
  14 SCUP-mice (de Gruijl et al., 1993)        3.192E-01
  15 SCUP-human (de Gruijl and van der Leun,   5.449E-01
  16 Standard human erythema (Webb et al., 20  2.318E-01
  17 UV index (WMO, 1994; Webb et al., 2011)   9.274E+00
  18 Erythema, humans (Anders et al., 1995)    1.035E-03
  19 Occupational TLV (ACGIH, 1992)            5.970E-02
  20 Phytoplankton (Boucher et al., 1994)      4.205E-03
  21 Phytoplankton, phaeo (Cullen et al., 199  1.578E-03
  22 Phytoplankton, proro (Cullen et al., 199  1.476E-03
  23 Cataract, pig (Oriowo et al., 2001)       7.191E-01
  24 Plant damage (Caldwell, 1971)             2.777E-01
  25 Plant damage,Flint&Caldwell,2003,orig.    1.014E+00
  26 Plant damage,Flint&Caldwell,2003,ext390   1.419E+00
  27 Previtamin-D3 (CIE 2006)                  4.558E-01
  28 NMSC (CIE 2006)                           5.166E-01
  29 Ebola virus inactivation                  1.697E+00
