\n INPUT PARAMETERS:\n
 RADIATION SCHEME:            4  streams\n
 w-grid:         111   290.000000       400.000000    
 equally spaced z-grid
 z-grid:          81   2.50000004E-02   80.0000000    
  measurement point: index           1  altitude=   2.50000004E-02
 idate =     20230101  esfact(1) =    1.00000000    
 air temperature: USSA, 1976
 air concentrations: USSA, 1976
 ozone profile: USSA, 1976
 DATAE1/SUN/susim_hi.flx
 DATAE1/SUN/atlas3_1994_317_a.dat        
 DATAE1/SUN/neckel.flx                   
 DATAE1/SUN/sao2010.solref.converted     
 aerosols:  Elterman (1968) continental profile
 solar zenith angle =    9.93999958    
 \n SPECTRAL IRRADIANCE (W m-2 nm-1):\n
 LOWER WVL  UPPER WVL  DIRECT     DIFFUSE DOWN  DIFFUSE UP  TOTAL DOWNWELLING
 290.00     291.00     0.000E+00  0.000E+00     0.000E+00   0.000E+00
 291.00     292.00     1.045E-05  1.405E-05     7.349E-06   2.450E-05
 292.00     293.00     2.741E-05  3.779E-05     1.956E-05   6.520E-05
 293.00     294.00     8.566E-05  1.210E-04     6.200E-05   2.067E-04
 294.00     295.00     1.731E-04  2.494E-04     1.268E-04   4.225E-04
 295.00     296.00     4.634E-04  6.838E-04     3.442E-04   1.147E-03
 296.00     297.00     8.522E-04  1.284E-03     6.408E-04   2.136E-03
 297.00     298.00     1.710E-03  2.625E-03     1.301E-03   4.335E-03
 298.00     299.00     2.121E-03  3.306E-03     1.628E-03   5.427E-03
 299.00     300.00     4.909E-03  7.769E-03     3.803E-03   1.268E-02
 300.00     301.00     4.740E-03  7.583E-03     3.697E-03   1.232E-02
 301.00     302.00     9.707E-03  1.575E-02     7.637E-03   2.546E-02
 302.00     303.00     1.238E-02  2.020E-02     9.776E-03   3.259E-02
 303.00     304.00     2.167E-02  3.574E-02     1.722E-02   5.741E-02
 304.00     305.00     2.416E-02  3.988E-02     1.921E-02   6.404E-02
 305.00     306.00     3.266E-02  5.444E-02     2.613E-02   8.709E-02
 306.00     307.00     3.464E-02  5.753E-02     2.765E-02   9.217E-02
 307.00     308.00     5.097E-02  8.530E-02     4.088E-02   1.363E-01
 308.00     309.00     5.784E-02  9.624E-02     4.622E-02   1.541E-01
 309.00     310.00     5.177E-02  8.628E-02     4.141E-02   1.380E-01
 310.00     311.00     7.145E-02  1.188E-01     5.707E-02   1.902E-01
 311.00     312.00     9.305E-02  1.537E-01     7.402E-02   2.467E-01
 312.00     313.00     9.192E-02  1.520E-01     7.319E-02   2.440E-01
 313.00     314.00     1.053E-01  1.723E-01     8.329E-02   2.776E-01
 314.00     315.00     1.064E-01  1.741E-01     8.414E-02   2.805E-01
 315.00     316.00     1.109E-01  1.793E-01     8.707E-02   2.902E-01
 316.00     317.00     1.115E-01  1.798E-01     8.740E-02   2.913E-01
 317.00     318.00     1.592E-01  2.529E-01     1.236E-01   4.121E-01
 318.00     319.00     1.262E-01  2.001E-01     9.790E-02   3.263E-01
 319.00     320.00     1.554E-01  2.433E-01     1.196E-01   3.987E-01
 320.00     321.00     1.907E-01  2.951E-01     1.457E-01   4.857E-01
 321.00     322.00     1.630E-01  2.517E-01     1.244E-01   4.147E-01
 322.00     323.00     1.658E-01  2.499E-01     1.247E-01   4.157E-01
 323.00     324.00     1.717E-01  2.591E-01     1.292E-01   4.308E-01
 324.00     325.00     2.033E-01  3.022E-01     1.516E-01   5.054E-01
 325.00     326.00     2.299E-01  3.361E-01     1.698E-01   5.660E-01
 326.00     327.00     2.795E-01  4.074E-01     2.061E-01   6.869E-01
 327.00     328.00     2.627E-01  3.763E-01     1.917E-01   6.390E-01
 328.00     329.00     2.445E-01  3.453E-01     1.770E-01   5.899E-01
 329.00     330.00     3.184E-01  4.473E-01     2.297E-01   7.656E-01
 330.00     331.00     2.921E-01  4.034E-01     2.087E-01   6.955E-01
 331.00     332.00     2.910E-01  3.961E-01     2.061E-01   6.870E-01
 332.00     333.00     2.879E-01  3.890E-01     2.031E-01   6.769E-01
 333.00     334.00     2.728E-01  3.628E-01     1.907E-01   6.356E-01
 334.00     335.00     3.068E-01  4.032E-01     2.130E-01   7.100E-01
 335.00     336.00     3.128E-01  4.069E-01     2.159E-01   7.196E-01
 336.00     337.00     2.463E-01  3.160E-01     1.687E-01   5.624E-01
 337.00     338.00     2.725E-01  3.445E-01     1.851E-01   6.170E-01
 338.00     339.00     2.892E-01  3.619E-01     1.953E-01   6.511E-01
 339.00     340.00     3.164E-01  3.912E-01     2.123E-01   7.075E-01
 340.00     341.00     3.407E-01  4.155E-01     2.268E-01   7.561E-01
 341.00     342.00     3.043E-01  3.671E-01     2.014E-01   6.713E-01
 342.00     343.00     3.391E-01  4.043E-01     2.230E-01   7.434E-01
 343.00     344.00     3.546E-01  4.173E-01     2.316E-01   7.719E-01
 344.00     345.00     2.501E-01  2.907E-01     1.622E-01   5.408E-01
 345.00     346.00     3.445E-01  3.961E-01     2.222E-01   7.406E-01
 346.00     347.00     3.243E-01  3.682E-01     2.078E-01   6.925E-01
 347.00     348.00     3.187E-01  3.577E-01     2.029E-01   6.764E-01
 348.00     349.00     3.522E-01  3.908E-01     2.229E-01   7.430E-01
 349.00     350.00     2.968E-01  3.256E-01     1.867E-01   6.224E-01
 350.00     351.00     4.178E-01  4.532E-01     2.613E-01   8.710E-01
 351.00     352.00     3.621E-01  3.883E-01     2.251E-01   7.504E-01
 352.00     353.00     3.283E-01  3.481E-01     2.029E-01   6.765E-01
 353.00     354.00     3.973E-01  4.167E-01     2.442E-01   8.139E-01
 354.00     355.00     4.322E-01  4.483E-01     2.641E-01   8.805E-01
 355.00     356.00     4.059E-01  4.165E-01     2.467E-01   8.225E-01
 356.00     357.00     3.786E-01  3.843E-01     2.289E-01   7.629E-01
 357.00     358.00     3.236E-01  3.249E-01     1.945E-01   6.485E-01
 358.00     359.00     2.509E-01  2.493E-01     1.500E-01   5.002E-01
 359.00     360.00     4.243E-01  4.171E-01     2.524E-01   8.414E-01
 360.00     361.00     3.951E-01  3.844E-01     2.339E-01   7.795E-01
 361.00     362.00     3.579E-01  3.446E-01     2.107E-01   7.025E-01
 362.00     363.00     4.222E-01  4.024E-01     2.474E-01   8.246E-01
 363.00     364.00     3.773E-01  3.559E-01     2.200E-01   7.332E-01
 364.00     365.00     4.134E-01  3.861E-01     2.398E-01   7.995E-01
 365.00     366.00     5.060E-01  4.678E-01     2.921E-01   9.737E-01
 366.00     367.00     5.378E-01  4.923E-01     3.090E-01   1.030E+00
 367.00     368.00     5.128E-01  4.648E-01     2.933E-01   9.776E-01
 368.00     369.00     4.524E-01  4.060E-01     2.575E-01   8.584E-01
 369.00     370.00     5.449E-01  4.843E-01     3.088E-01   1.029E+00
 370.00     371.00     4.964E-01  4.370E-01     2.800E-01   9.334E-01
 371.00     372.00     5.703E-01  4.973E-01     3.203E-01   1.068E+00
 372.00     373.00     4.229E-01  3.653E-01     2.365E-01   7.882E-01
 373.00     374.00     3.838E-01  3.284E-01     2.137E-01   7.122E-01
 374.00     375.00     4.229E-01  3.584E-01     2.344E-01   7.813E-01
 375.00     376.00     4.789E-01  4.022E-01     2.643E-01   8.812E-01
 376.00     377.00     4.801E-01  3.995E-01     2.639E-01   8.796E-01
 377.00     378.00     5.738E-01  4.732E-01     3.141E-01   1.047E+00
 378.00     379.00     6.277E-01  5.130E-01     3.422E-01   1.141E+00
 379.00     380.00     4.661E-01  3.775E-01     2.531E-01   8.436E-01
 380.00     381.00     5.626E-01  4.516E-01     3.042E-01   1.014E+00
 381.00     382.00     5.305E-01  4.221E-01     2.858E-01   9.526E-01
 382.00     383.00     3.547E-01  2.798E-01     1.904E-01   6.345E-01
 383.00     384.00     3.126E-01  2.444E-01     1.671E-01   5.570E-01
 384.00     385.00     4.707E-01  3.648E-01     2.507E-01   8.355E-01
 385.00     386.00     4.673E-01  3.591E-01     2.479E-01   8.263E-01
 386.00     387.00     4.779E-01  3.641E-01     2.526E-01   8.420E-01
 387.00     388.00     4.456E-01  3.367E-01     2.347E-01   7.823E-01
 388.00     389.00     4.481E-01  3.357E-01     2.352E-01   7.838E-01
 389.00     390.00     5.669E-01  4.212E-01     2.964E-01   9.881E-01
 390.00     391.00     5.586E-01  4.116E-01     2.911E-01   9.703E-01
 391.00     392.00     6.648E-01  4.859E-01     3.452E-01   1.151E+00
 392.00     393.00     5.001E-01  3.625E-01     2.588E-01   8.626E-01
 393.00     394.00     2.181E-01  1.568E-01     1.125E-01   3.749E-01
 394.00     395.00     5.147E-01  3.672E-01     2.646E-01   8.819E-01
 395.00     396.00     6.643E-01  4.701E-01     3.403E-01   1.134E+00
 396.00     397.00     3.912E-01  2.747E-01     1.998E-01   6.659E-01
 397.00     398.00     4.528E-01  3.154E-01     2.304E-01   7.682E-01
 398.00     399.00     7.803E-01  5.393E-01     3.959E-01   1.320E+00
 399.00     400.00     8.139E-01  5.582E-01     4.116E-01   1.372E+00
 \nWEIGHTED IRRADIANCES (W m-2)
 (with normalized action spectra)\n
   1 UV-B, 280-315 nm                          2.065E+00
   2 UV-B*, 280-320 nm                         3.784E+00
   3 UV-A, 315-400 nm                          6.391E+01
   4 vis+, > 400 nm                            0.000E+00
   5 Gaussian, 305 nm, 10 nm FWHM              8.981E-02
   6 Gaussian, 320 nm, 10 nm FWHM              4.096E-01
   7 Gaussian, 340 nm, 10 nm FWHM              6.837E-01
   8 Gaussian, 380 nm, 10 nm FWHM              8.764E-01
   9 RB Meter, model 501                       6.075E-01
  10 Eppley UV Photometer                      5.599E+01
  11 PAR, 400-700 nm, umol m-2 s-1             0.000E+00
  12 Exponential decay, 14 nm/10               7.023E-01
  13 DNA damage, in vitro (Setlow, 1974)       6.924E-03
  14 SCUP-mice (de Gruijl et al., 1993)        4.048E-01
  15 SCUP-human (de Gruijl and van der Leun,   6.737E-01
  16 Standard human erythema (Webb et al., 20  2.889E-01
  17 UV index (WMO, 1994; Webb et al., 2011)   1.156E+01
  18 Erythema, humans (Anders et al., 1995)    1.318E-03
  19 Occupational TLV (ACGIH, 1992)            7.670E-02
  20 Phytoplankton (Boucher et al., 1994)      5.080E-03
  21 Phytoplankton, phaeo (Cullen et al., 199  1.815E-03
  22 Phytoplankton, proro (Cullen et al., 199  1.721E-03
  23 Cataract, pig (Oriowo et al., 2001)       8.888E-01
  24 Plant damage (Caldwell, 1971)             3.612E-01
  25 Plant damage,Flint&Caldwell,2003,orig.    1.183E+00
  26 Plant damage,Flint&Caldwell,2003,ext390   1.633E+00
  27 Previtamin-D3 (CIE 2006)                  5.753E-01
  28 NMSC (CIE 2006)                           6.414E-01
  29 Ebola virus inactivation                  2.251E+00
