\n INPUT PARAMETERS:\n
 RADIATION SCHEME:            4  streams\n
 w-grid:         111   290.000000       400.000000    
 equally spaced z-grid
 z-grid:          81   2.50000004E-02   80.0000000    
  measurement point: index           1  altitude=   2.50000004E-02
 idate =     20230427  esfact(1) =    1.00000000    
 air temperature: USSA, 1976
 air concentrations: USSA, 1976
 ozone profile: USSA, 1976
 DATAE1/SUN/susim_hi.flx
 DATAE1/SUN/atlas3_1994_317_a.dat        
 DATAE1/SUN/neckel.flx                   
 DATAE1/SUN/sao2010.solref.converted     
 aerosols:  Elterman (1968) continental profile
 solar zenith angle =    46.7999992    
 \n SPECTRAL IRRADIANCE (W m-2 nm-1):\n
 LOWER WVL  UPPER WVL  DIRECT     DIFFUSE DOWN  DIFFUSE UP  TOTAL DOWNWELLING
 290.00     291.00     0.000E+00  0.000E+00     0.000E+00   0.000E+00
 291.00     292.00     6.012E-08  2.134E-07     8.204E-08   2.735E-07
 292.00     293.00     2.547E-07  8.860E-07     3.422E-07   1.141E-06
 293.00     294.00     1.249E-06  4.282E-06     1.659E-06   5.531E-06
 294.00     295.00     3.598E-06  1.220E-05     4.738E-06   1.579E-05
 295.00     296.00     1.402E-05  4.722E-05     1.837E-05   6.124E-05
 296.00     297.00     3.526E-05  1.182E-04     4.604E-05   1.535E-04
 297.00     298.00     9.317E-05  3.113E-04     1.213E-04   4.044E-04
 298.00     299.00     1.458E-04  4.857E-04     1.894E-04   6.315E-04
 299.00     300.00     4.203E-04  1.398E-03     5.455E-04   1.818E-03
 300.00     301.00     4.810E-04  1.595E-03     6.227E-04   2.076E-03
 301.00     302.00     1.183E-03  3.923E-03     1.532E-03   5.106E-03
 302.00     303.00     1.706E-03  5.629E-03     2.200E-03   7.334E-03
 303.00     304.00     3.443E-03  1.136E-02     4.442E-03   1.481E-02
 304.00     305.00     4.181E-03  1.370E-02     5.363E-03   1.788E-02
 305.00     306.00     6.392E-03  2.096E-02     8.205E-03   2.735E-02
 306.00     307.00     7.178E-03  2.329E-02     9.139E-03   3.046E-02
 307.00     308.00     1.170E-02  3.796E-02     1.490E-02   4.966E-02
 308.00     309.00     1.386E-02  4.447E-02     1.750E-02   5.833E-02
 309.00     310.00     1.330E-02  4.247E-02     1.673E-02   5.577E-02
 310.00     311.00     1.932E-02  6.122E-02     2.416E-02   8.054E-02
 311.00     312.00     2.609E-02  8.167E-02     3.233E-02   1.078E-01
 312.00     313.00     2.732E-02  8.524E-02     3.377E-02   1.126E-01
 313.00     314.00     3.190E-02  9.797E-02     3.896E-02   1.299E-01
 314.00     315.00     3.388E-02  1.036E-01     4.125E-02   1.375E-01
 315.00     316.00     3.581E-02  1.077E-01     4.306E-02   1.435E-01
 316.00     317.00     3.746E-02  1.120E-01     4.483E-02   1.494E-01
 317.00     318.00     5.382E-02  1.578E-01     6.348E-02   2.116E-01
 318.00     319.00     4.427E-02  1.290E-01     5.198E-02   1.733E-01
 319.00     320.00     5.514E-02  1.581E-01     6.396E-02   2.132E-01
 320.00     321.00     6.855E-02  1.934E-01     7.859E-02   2.620E-01
 321.00     322.00     6.056E-02  1.700E-01     6.917E-02   2.306E-01
 322.00     323.00     6.070E-02  1.655E-01     6.786E-02   2.262E-01
 323.00     324.00     6.533E-02  1.778E-01     7.293E-02   2.431E-01
 324.00     325.00     7.768E-02  2.074E-01     8.554E-02   2.851E-01
 325.00     326.00     8.797E-02  2.301E-01     9.543E-02   3.181E-01
 326.00     327.00     1.099E-01  2.859E-01     1.187E-01   3.958E-01
 327.00     328.00     1.032E-01  2.625E-01     1.097E-01   3.657E-01
 328.00     329.00     9.655E-02  2.414E-01     1.014E-01   3.379E-01
 329.00     330.00     1.284E-01  3.184E-01     1.341E-01   4.469E-01
 330.00     331.00     1.177E-01  2.857E-01     1.210E-01   4.033E-01
 331.00     332.00     1.176E-01  2.805E-01     1.194E-01   3.982E-01
 332.00     333.00     1.183E-01  2.793E-01     1.193E-01   3.976E-01
 333.00     334.00     1.121E-01  2.596E-01     1.115E-01   3.717E-01
 334.00     335.00     1.271E-01  2.897E-01     1.250E-01   4.167E-01
 335.00     336.00     1.309E-01  2.944E-01     1.276E-01   4.253E-01
 336.00     337.00     1.034E-01  2.287E-01     9.961E-02   3.320E-01
 337.00     338.00     1.145E-01  2.486E-01     1.089E-01   3.631E-01
 338.00     339.00     1.227E-01  2.632E-01     1.158E-01   3.859E-01
 339.00     340.00     1.350E-01  2.851E-01     1.260E-01   4.201E-01
 340.00     341.00     1.457E-01  3.026E-01     1.345E-01   4.483E-01
 341.00     342.00     1.311E-01  2.685E-01     1.199E-01   3.996E-01
 342.00     343.00     1.468E-01  2.963E-01     1.329E-01   4.431E-01
 343.00     344.00     1.540E-01  3.060E-01     1.380E-01   4.600E-01
 344.00     345.00     1.089E-01  2.132E-01     9.664E-02   3.221E-01
 345.00     346.00     1.511E-01  2.918E-01     1.329E-01   4.429E-01
 346.00     347.00     1.426E-01  2.711E-01     1.241E-01   4.137E-01
 347.00     348.00     1.407E-01  2.638E-01     1.213E-01   4.045E-01
 348.00     349.00     1.562E-01  2.888E-01     1.335E-01   4.450E-01
 349.00     350.00     1.321E-01  2.409E-01     1.119E-01   3.730E-01
 350.00     351.00     1.868E-01  3.358E-01     1.568E-01   5.225E-01
 351.00     352.00     1.624E-01  2.880E-01     1.351E-01   4.504E-01
 352.00     353.00     1.478E-01  2.586E-01     1.219E-01   4.064E-01
 353.00     354.00     1.796E-01  3.099E-01     1.469E-01   4.896E-01
 354.00     355.00     1.961E-01  3.340E-01     1.590E-01   5.302E-01
 355.00     356.00     1.849E-01  3.107E-01     1.487E-01   4.956E-01
 356.00     357.00     1.731E-01  2.870E-01     1.380E-01   4.601E-01
 357.00     358.00     1.484E-01  2.429E-01     1.174E-01   3.913E-01
 358.00     359.00     1.155E-01  1.866E-01     9.063E-02   3.021E-01
 359.00     360.00     1.960E-01  3.126E-01     1.526E-01   5.086E-01
 360.00     361.00     1.831E-01  2.885E-01     1.415E-01   4.716E-01
 361.00     362.00     1.664E-01  2.589E-01     1.276E-01   4.253E-01
 362.00     363.00     1.970E-01  3.027E-01     1.499E-01   4.996E-01
 363.00     364.00     1.766E-01  2.680E-01     1.334E-01   4.446E-01
 364.00     365.00     1.941E-01  2.910E-01     1.455E-01   4.851E-01
 365.00     366.00     2.383E-01  3.530E-01     1.774E-01   5.913E-01
 366.00     367.00     2.541E-01  3.719E-01     1.878E-01   6.260E-01
 367.00     368.00     2.430E-01  3.515E-01     1.784E-01   5.945E-01
 368.00     369.00     2.150E-01  3.074E-01     1.567E-01   5.224E-01
 369.00     370.00     2.597E-01  3.671E-01     1.881E-01   6.269E-01
 370.00     371.00     2.373E-01  3.316E-01     1.707E-01   5.689E-01
 371.00     372.00     2.734E-01  3.777E-01     1.953E-01   6.511E-01
 372.00     373.00     2.034E-01  2.777E-01     1.443E-01   4.811E-01
 373.00     374.00     1.851E-01  2.499E-01     1.305E-01   4.350E-01
 374.00     375.00     2.045E-01  2.731E-01     1.433E-01   4.775E-01
 375.00     376.00     2.322E-01  3.067E-01     1.617E-01   5.389E-01
 376.00     377.00     2.334E-01  3.049E-01     1.615E-01   5.383E-01
 377.00     378.00     2.797E-01  3.615E-01     1.924E-01   6.412E-01
 378.00     379.00     3.068E-01  3.923E-01     2.097E-01   6.991E-01
 379.00     380.00     2.284E-01  2.890E-01     1.552E-01   5.173E-01
 380.00     381.00     2.764E-01  3.460E-01     1.867E-01   6.223E-01
 381.00     382.00     2.613E-01  3.237E-01     1.755E-01   5.850E-01
 382.00     383.00     1.751E-01  2.148E-01     1.170E-01   3.899E-01
 383.00     384.00     1.547E-01  1.878E-01     1.027E-01   3.425E-01
 384.00     385.00     2.335E-01  2.805E-01     1.542E-01   5.141E-01
 385.00     386.00     2.324E-01  2.764E-01     1.526E-01   5.087E-01
 386.00     387.00     2.382E-01  2.805E-01     1.556E-01   5.187E-01
 387.00     388.00     2.227E-01  2.596E-01     1.447E-01   4.822E-01
 388.00     389.00     2.244E-01  2.591E-01     1.450E-01   4.835E-01
 389.00     390.00     2.846E-01  3.253E-01     1.830E-01   6.099E-01
 390.00     391.00     2.811E-01  3.182E-01     1.798E-01   5.992E-01
 391.00     392.00     3.352E-01  3.759E-01     2.133E-01   7.111E-01
 392.00     393.00     2.527E-01  2.807E-01     1.600E-01   5.334E-01
 393.00     394.00     1.104E-01  1.215E-01     6.959E-02   2.320E-01
 394.00     395.00     2.613E-01  2.847E-01     1.638E-01   5.460E-01
 395.00     396.00     3.379E-01  3.648E-01     2.108E-01   7.027E-01
 396.00     397.00     1.994E-01  2.133E-01     1.238E-01   4.127E-01
 397.00     398.00     2.313E-01  2.451E-01     1.429E-01   4.764E-01
 398.00     399.00     3.994E-01  4.195E-01     2.457E-01   8.189E-01
 399.00     400.00     4.174E-01  4.345E-01     2.556E-01   8.520E-01
 \nWEIGHTED IRRADIANCES (W m-2)
 (with normalized action spectra)\n
   1 UV-B, 280-315 nm                          8.401E-01
   2 UV-B*, 280-320 nm                         1.731E+00
   3 UV-A, 315-400 nm                          3.840E+01
   4 vis+, > 400 nm                            0.000E+00
   5 Gaussian, 305 nm, 10 nm FWHM              3.297E-02
   6 Gaussian, 320 nm, 10 nm FWHM              2.209E-01
   7 Gaussian, 340 nm, 10 nm FWHM              4.054E-01
   8 Gaussian, 380 nm, 10 nm FWHM              5.376E-01
   9 RB Meter, model 501                       2.350E-01
  10 Eppley UV Photometer                      3.284E+01
  11 PAR, 400-700 nm, umol m-2 s-1             0.000E+00
  12 Exponential decay, 14 nm/10               2.847E-01
  13 DNA damage, in vitro (Setlow, 1974)       1.864E-03
  14 SCUP-mice (de Gruijl et al., 1993)        1.393E-01
  15 SCUP-human (de Gruijl and van der Leun,   2.583E-01
  16 Standard human erythema (Webb et al., 20  1.093E-01
  17 UV index (WMO, 1994; Webb et al., 2011)   4.371E+00
  18 Erythema, humans (Anders et al., 1995)    4.411E-04
  19 Occupational TLV (ACGIH, 1992)            2.555E-02
  20 Phytoplankton (Boucher et al., 1994)      2.196E-03
  21 Phytoplankton, phaeo (Cullen et al., 199  9.708E-04
  22 Phytoplankton, proro (Cullen et al., 199  8.703E-04
  23 Cataract, pig (Oriowo et al., 2001)       3.416E-01
  24 Plant damage (Caldwell, 1971)             1.076E-01
  25 Plant damage,Flint&Caldwell,2003,orig.    6.046E-01
  26 Plant damage,Flint&Caldwell,2003,ext390   8.802E-01
  27 Previtamin-D3 (CIE 2006)                  1.979E-01
  28 NMSC (CIE 2006)                           2.414E-01
  29 Ebola virus inactivation                  6.289E-01
