

 \n INPUT PARAMETERS:\n
 RADIATION SCHEME:            4  streams\n
 w-grid:         111   290.000000       400.000000    
 equally spaced z-grid
 z-grid:          81   2.50000004E-02   80.0000000    
  measurement point: index           1  altitude=   2.50000004E-02
 idate =     20230327  esfact(1) =    1.00000000    
 air temperature: USSA, 1976
 air concentrations: USSA, 1976
 ozone profile: USSA, 1976
 DATAE1/SUN/susim_hi.flx
 DATAE1/SUN/atlas3_1994_317_a.dat        
 DATAE1/SUN/neckel.flx                   
 DATAE1/SUN/sao2010.solref.converted     
 aerosols:  Elterman (1968) continental profile
 solar zenith angle =    54.4000015    
 \n SPECTRAL IRRADIANCE (W m-2 nm-1):\n
 LOWER WVL  UPPER WVL  DIRECT     DIFFUSE DOWN  DIFFUSE UP  TOTAL DOWNWELLING
 290.00     291.00     0.000E+00  0.000E+00     0.000E+00   0.000E+00
 291.00     292.00     3.299E-09  3.060E-08     3.390E-09   3.390E-08
 292.00     293.00     1.837E-08  1.434E-07     1.618E-08   1.618E-07
 293.00     294.00     1.166E-07  7.966E-07     9.132E-08   9.132E-07
 294.00     295.00     4.110E-07  2.566E-06     2.977E-07   2.977E-06
 295.00     296.00     1.985E-06  1.147E-05     1.346E-06   1.346E-05
 296.00     297.00     5.969E-06  3.261E-05     3.858E-06   3.858E-05
 297.00     298.00     1.845E-05  9.658E-05     1.150E-05   1.150E-04
 298.00     299.00     3.298E-05  1.669E-04     1.999E-05   1.999E-04
 299.00     300.00     1.078E-04  5.305E-04     6.383E-05   6.383E-04
 300.00     301.00     1.359E-04  6.536E-04     7.895E-05   7.895E-04
 301.00     302.00     3.711E-04  1.751E-03     2.123E-04   2.123E-03
 302.00     303.00     5.739E-04  2.659E-03     3.233E-04   3.233E-03
 303.00     304.00     1.257E-03  5.744E-03     7.001E-04   7.001E-03
 304.00     305.00     1.603E-03  7.200E-03     8.803E-04   8.803E-03
 305.00     306.00     2.629E-03  1.169E-02     1.432E-03   1.432E-02
 306.00     307.00     3.050E-03  1.332E-02     1.637E-03   1.637E-02
 307.00     308.00     5.270E-03  2.282E-02     2.809E-03   2.809E-02
 308.00     309.00     6.403E-03  2.725E-02     3.365E-03   3.365E-02
 309.00     310.00     6.391E-03  2.690E-02     3.329E-03   3.329E-02
 310.00     311.00     9.561E-03  3.970E-02     4.926E-03   4.926E-02
 311.00     312.00     1.317E-02  5.381E-02     6.699E-03   6.699E-02
 312.00     313.00     1.426E-02  5.774E-02     7.201E-03   7.201E-02
 313.00     314.00     1.684E-02  6.684E-02     8.368E-03   8.368E-02
 314.00     315.00     1.840E-02  7.240E-02     9.080E-03   9.080E-02
 315.00     316.00     1.961E-02  7.561E-02     9.522E-03   9.522E-02
 316.00     317.00     2.098E-02  8.006E-02     1.010E-02   1.010E-01
 317.00     318.00     3.026E-02  1.129E-01     1.432E-02   1.432E-01
 318.00     319.00     2.541E-02  9.391E-02     1.193E-02   1.193E-01
 319.00     320.00     3.187E-02  1.155E-01     1.474E-02   1.474E-01
 320.00     321.00     3.991E-02  1.420E-01     1.819E-02   1.819E-01
 321.00     322.00     3.593E-02  1.267E-01     1.627E-02   1.627E-01
 322.00     323.00     3.571E-02  1.221E-01     1.579E-02   1.579E-01
 323.00     324.00     3.929E-02  1.336E-01     1.729E-02   1.729E-01
 324.00     325.00     4.684E-02  1.560E-01     2.028E-02   2.028E-01
 325.00     326.00     5.308E-02  1.728E-01     2.259E-02   2.259E-01
 326.00     327.00     6.738E-02  2.174E-01     2.848E-02   2.848E-01
 327.00     328.00     6.318E-02  1.991E-01     2.623E-02   2.623E-01
 328.00     329.00     5.932E-02  1.833E-01     2.426E-02   2.426E-01
 329.00     330.00     7.987E-02  2.440E-01     3.239E-02   3.239E-01
 330.00     331.00     7.312E-02  2.184E-01     2.915E-02   2.915E-01
 331.00     332.00     7.325E-02  2.145E-01     2.877E-02   2.877E-01
 332.00     333.00     7.439E-02  2.150E-01     2.894E-02   2.894E-01
 333.00     334.00     7.050E-02  1.995E-01     2.700E-02   2.700E-01
 334.00     335.00     8.022E-02  2.231E-01     3.034E-02   3.034E-01
 335.00     336.00     8.310E-02  2.277E-01     3.108E-02   3.108E-01
 336.00     337.00     6.577E-02  1.768E-01     2.426E-02   2.426E-01
 337.00     338.00     7.286E-02  1.920E-01     2.649E-02   2.649E-01
 338.00     339.00     7.857E-02  2.041E-01     2.827E-02   2.827E-01
 339.00     340.00     8.668E-02  2.214E-01     3.080E-02   3.080E-01
 340.00     341.00     9.368E-02  2.349E-01     3.286E-02   3.286E-01
 341.00     342.00     8.463E-02  2.090E-01     2.936E-02   2.936E-01
 342.00     343.00     9.505E-02  2.308E-01     3.259E-02   3.259E-01
 343.00     344.00     9.989E-02  2.384E-01     3.383E-02   3.383E-01
 344.00     345.00     7.080E-02  1.662E-01     2.370E-02   2.370E-01
 345.00     346.00     9.858E-02  2.280E-01     3.265E-02   3.265E-01
 346.00     347.00     9.316E-02  2.118E-01     3.050E-02   3.050E-01
 347.00     348.00     9.216E-02  2.062E-01     2.984E-02   2.984E-01
 348.00     349.00     1.026E-01  2.261E-01     3.286E-02   3.286E-01
 349.00     350.00     8.697E-02  1.887E-01     2.757E-02   2.757E-01
 350.00     351.00     1.232E-01  2.633E-01     3.865E-02   3.865E-01
 351.00     352.00     1.074E-01  2.259E-01     3.333E-02   3.333E-01
 352.00     353.00     9.795E-02  2.031E-01     3.010E-02   3.010E-01
 353.00     354.00     1.193E-01  2.436E-01     3.629E-02   3.629E-01
 354.00     355.00     1.305E-01  2.628E-01     3.933E-02   3.933E-01
 355.00     356.00     1.233E-01  2.446E-01     3.680E-02   3.680E-01
 356.00     357.00     1.157E-01  2.261E-01     3.418E-02   3.418E-01
 357.00     358.00     9.937E-02  1.915E-01     2.909E-02   2.909E-01
 358.00     359.00     7.748E-02  1.473E-01     2.248E-02   2.248E-01
 359.00     360.00     1.317E-01  2.469E-01     3.786E-02   3.786E-01
 360.00     361.00     1.233E-01  2.280E-01     3.513E-02   3.513E-01
 361.00     362.00     1.123E-01  2.048E-01     3.171E-02   3.171E-01
 362.00     363.00     1.332E-01  2.396E-01     3.727E-02   3.727E-01
 363.00     364.00     1.196E-01  2.123E-01     3.319E-02   3.319E-01
 364.00     365.00     1.317E-01  2.307E-01     3.624E-02   3.624E-01
 365.00     366.00     1.620E-01  2.800E-01     4.420E-02   4.420E-01
 366.00     367.00     1.730E-01  2.952E-01     4.682E-02   4.682E-01
 367.00     368.00     1.658E-01  2.792E-01     4.450E-02   4.450E-01
 368.00     369.00     1.469E-01  2.443E-01     3.913E-02   3.913E-01
 369.00     370.00     1.778E-01  2.920E-01     4.698E-02   4.698E-01
 370.00     371.00     1.627E-01  2.639E-01     4.266E-02   4.266E-01
 371.00     372.00     1.878E-01  3.008E-01     4.886E-02   4.886E-01
 372.00     373.00     1.399E-01  2.213E-01     3.612E-02   3.612E-01
 373.00     374.00     1.275E-01  1.993E-01     3.268E-02   3.268E-01
 374.00     375.00     1.411E-01  2.179E-01     3.590E-02   3.590E-01
 375.00     376.00     1.605E-01  2.449E-01     4.054E-02   4.054E-01
 376.00     377.00     1.616E-01  2.436E-01     4.052E-02   4.052E-01
 377.00     378.00     1.939E-01  2.890E-01     4.829E-02   4.829E-01
 378.00     379.00     2.130E-01  3.138E-01     5.268E-02   5.268E-01
 379.00     380.00     1.588E-01  2.313E-01     3.901E-02   3.901E-01
 380.00     381.00     1.925E-01  2.771E-01     4.696E-02   4.696E-01
 381.00     382.00     1.822E-01  2.594E-01     4.416E-02   4.416E-01
 382.00     383.00     1.223E-01  1.722E-01     2.945E-02   2.945E-01
 383.00     384.00     1.082E-01  1.506E-01     2.589E-02   2.589E-01
 384.00     385.00     1.636E-01  2.252E-01     3.888E-02   3.888E-01
 385.00     386.00     1.630E-01  2.220E-01     3.850E-02   3.850E-01
 386.00     387.00     1.673E-01  2.254E-01     3.928E-02   3.928E-01
 387.00     388.00     1.566E-01  2.087E-01     3.653E-02   3.653E-01
 388.00     389.00     1.581E-01  2.084E-01     3.665E-02   3.665E-01
 389.00     390.00     2.007E-01  2.619E-01     4.626E-02   4.626E-01
 390.00     391.00     1.985E-01  2.563E-01     4.548E-02   4.548E-01
 391.00     392.00     2.370E-01  3.029E-01     5.399E-02   5.399E-01
 392.00     393.00     1.789E-01  2.263E-01     4.052E-02   4.052E-01
 393.00     394.00     7.829E-02  9.804E-02     1.763E-02   1.763E-01
 394.00     395.00     1.854E-01  2.298E-01     4.153E-02   4.153E-01
 395.00     396.00     2.401E-01  2.947E-01     5.347E-02   5.347E-01
 396.00     397.00     1.419E-01  1.724E-01     3.143E-02   3.143E-01
 397.00     398.00     1.647E-01  1.982E-01     3.629E-02   3.629E-01
 398.00     399.00     2.848E-01  3.394E-01     6.242E-02   6.242E-01
 399.00     400.00     2.980E-01  3.517E-01     6.497E-02   6.497E-01
 \nWEIGHTED IRRADIANCES (W m-2)
 (with normalized action spectra)\n
   1 UV-B, 280-315 nm                          5.114E-01
   2 UV-B*, 280-320 nm                         1.118E+00
   3 UV-A, 315-400 nm                          2.854E+01
   4 vis+, > 400 nm                            0.000E+00
   5 Gaussian, 305 nm, 10 nm FWHM              1.907E-02
   6 Gaussian, 320 nm, 10 nm FWHM              1.536E-01
   7 Gaussian, 340 nm, 10 nm FWHM              2.971E-01
   8 Gaussian, 380 nm, 10 nm FWHM              4.054E-01
   9 RB Meter, model 501                       1.423E-01
  10 Eppley UV Photometer                      2.402E+01
  11 PAR, 400-700 nm, umol m-2 s-1             0.000E+00
  12 Exponential decay, 14 nm/10               1.777E-01
  13 DNA damage, in vitro (Setlow, 1974)       9.814E-04
  14 SCUP-mice (de Gruijl et al., 1993)        8.068E-02
  15 SCUP-human (de Gruijl and van der Leun,   1.561E-01
  16 Standard human erythema (Webb et al., 20  6.684E-02
  17 UV index (WMO, 1994; Webb et al., 2011)   2.673E+00
  18 Erythema, humans (Anders et al., 1995)    2.522E-04
  19 Occupational TLV (ACGIH, 1992)            1.497E-02
  20 Phytoplankton (Boucher et al., 1994)      1.412E-03
  21 Phytoplankton, phaeo (Cullen et al., 199  6.865E-04
  22 Phytoplankton, proro (Cullen et al., 199  6.008E-04
  23 Cataract, pig (Oriowo et al., 2001)       2.063E-01
  24 Plant damage (Caldwell, 1971)             5.688E-02
  25 Plant damage,Flint&Caldwell,2003,orig.    4.229E-01
  26 Plant damage,Flint&Caldwell,2003,ext390   6.305E-01
  27 Previtamin-D3 (CIE 2006)                  1.123E-01
  28 NMSC (CIE 2006)                           1.448E-01
  29 Ebola virus inactivation                  3.293E-01
