\n INPUT PARAMETERS:\n
 RADIATION SCHEME:            4  streams\n
 w-grid:         111   290.000000       400.000000    
 equally spaced z-grid
 z-grid:          81   2.50000004E-02   80.0000000    
  measurement point: index           1  altitude=   2.50000004E-02
 idate =     20230913  esfact(1) =    1.00000000    
 air temperature: USSA, 1976
 air concentrations: USSA, 1976
 ozone profile: USSA, 1976
 DATAE1/SUN/susim_hi.flx
 DATAE1/SUN/atlas3_1994_317_a.dat        
 DATAE1/SUN/neckel.flx                   
 DATAE1/SUN/sao2010.solref.converted     
 aerosols:  Elterman (1968) continental profile
 solar zenith angle =    36.7000008    
 \n SPECTRAL IRRADIANCE (W m-2 nm-1):\n
 LOWER WVL  UPPER WVL  DIRECT     DIFFUSE DOWN  DIFFUSE UP  TOTAL DOWNWELLING
 290.00     291.00     0.000E+00  0.000E+00     0.000E+00   0.000E+00
 291.00     292.00     6.966E-07  1.460E-06     6.471E-07   2.157E-06
 292.00     293.00     2.347E-06  5.033E-06     2.214E-06   7.380E-06
 293.00     294.00     9.281E-06  1.998E-05     8.778E-06   2.926E-05
 294.00     295.00     2.257E-05  4.950E-05     2.162E-05   7.207E-05
 295.00     296.00     7.351E-05  1.623E-04     7.074E-05   2.358E-04
 296.00     297.00     1.592E-04  3.585E-04     1.553E-04   5.177E-04
 297.00     298.00     3.687E-04  8.351E-04     3.611E-04   1.204E-03
 298.00     299.00     5.163E-04  1.187E-03     5.111E-04   1.704E-03
 299.00     300.00     1.340E-03  3.101E-03     1.332E-03   4.442E-03
 300.00     301.00     1.414E-03  3.284E-03     1.409E-03   4.698E-03
 301.00     302.00     3.186E-03  7.465E-03     3.195E-03   1.065E-02
 302.00     303.00     4.333E-03  1.017E-02     4.350E-03   1.450E-02
 303.00     304.00     8.170E-03  1.926E-02     8.229E-03   2.743E-02
 304.00     305.00     9.523E-03  2.240E-02     9.577E-03   3.192E-02
 305.00     306.00     1.373E-02  3.243E-02     1.385E-02   4.616E-02
 306.00     307.00     1.500E-02  3.521E-02     1.506E-02   5.021E-02
 307.00     308.00     2.328E-02  5.482E-02     2.343E-02   7.810E-02
 308.00     309.00     2.703E-02  6.318E-02     2.706E-02   9.020E-02
 309.00     310.00     2.508E-02  5.864E-02     2.512E-02   8.373E-02
 310.00     311.00     3.556E-02  8.277E-02     3.550E-02   1.183E-01
 311.00     312.00     4.718E-02  1.089E-01     4.682E-02   1.561E-01
 312.00     313.00     4.805E-02  1.108E-01     4.767E-02   1.589E-01
 313.00     314.00     5.560E-02  1.266E-01     5.465E-02   1.822E-01
 314.00     315.00     5.766E-02  1.311E-01     5.661E-02   1.887E-01
 315.00     316.00     6.055E-02  1.357E-01     5.887E-02   1.962E-01
 316.00     317.00     6.214E-02  1.387E-01     6.025E-02   2.008E-01
 317.00     318.00     8.900E-02  1.953E-01     8.528E-02   2.843E-01
 318.00     319.00     7.194E-02  1.572E-01     6.875E-02   2.292E-01
 319.00     320.00     8.910E-02  1.920E-01     8.433E-02   2.811E-01
 320.00     321.00     1.101E-01  2.340E-01     1.032E-01   3.440E-01
 321.00     322.00     9.573E-02  2.028E-01     8.956E-02   2.985E-01
 322.00     323.00     9.664E-02  1.992E-01     8.877E-02   2.959E-01
 323.00     324.00     1.021E-01  2.105E-01     9.379E-02   3.126E-01
 324.00     325.00     1.212E-01  2.456E-01     1.100E-01   3.668E-01
 325.00     326.00     1.371E-01  2.728E-01     1.230E-01   4.099E-01
 326.00     327.00     1.691E-01  3.351E-01     1.512E-01   5.042E-01
 327.00     328.00     1.588E-01  3.085E-01     1.402E-01   4.674E-01
 328.00     329.00     1.482E-01  2.834E-01     1.295E-01   4.317E-01
 329.00     330.00     1.952E-01  3.707E-01     1.698E-01   5.659E-01
 330.00     331.00     1.790E-01  3.334E-01     1.537E-01   5.124E-01
 331.00     332.00     1.786E-01  3.274E-01     1.518E-01   5.060E-01
 332.00     333.00     1.782E-01  3.239E-01     1.506E-01   5.021E-01
 333.00     334.00     1.689E-01  3.015E-01     1.411E-01   4.704E-01
 334.00     335.00     1.907E-01  3.358E-01     1.580E-01   5.265E-01
 335.00     336.00     1.954E-01  3.402E-01     1.607E-01   5.357E-01
 336.00     337.00     1.542E-01  2.642E-01     1.255E-01   4.184E-01
 337.00     338.00     1.706E-01  2.877E-01     1.375E-01   4.583E-01
 338.00     339.00     1.820E-01  3.035E-01     1.456E-01   4.855E-01
 339.00     340.00     1.997E-01  3.284E-01     1.584E-01   5.281E-01
 340.00     341.00     2.153E-01  3.487E-01     1.692E-01   5.639E-01
 341.00     342.00     1.930E-01  3.088E-01     1.505E-01   5.018E-01
 342.00     343.00     2.157E-01  3.404E-01     1.668E-01   5.561E-01
 343.00     344.00     2.259E-01  3.515E-01     1.732E-01   5.774E-01
 344.00     345.00     1.596E-01  2.449E-01     1.213E-01   4.044E-01
 345.00     346.00     2.206E-01  3.344E-01     1.665E-01   5.550E-01
 346.00     347.00     2.079E-01  3.108E-01     1.556E-01   5.188E-01
 347.00     348.00     2.048E-01  3.022E-01     1.521E-01   5.070E-01
 348.00     349.00     2.268E-01  3.305E-01     1.672E-01   5.574E-01
 349.00     350.00     1.916E-01  2.756E-01     1.401E-01   4.671E-01
 350.00     351.00     2.702E-01  3.838E-01     1.962E-01   6.541E-01
 351.00     352.00     2.346E-01  3.290E-01     1.691E-01   5.637E-01
 352.00     353.00     2.132E-01  2.953E-01     1.525E-01   5.084E-01
 353.00     354.00     2.585E-01  3.537E-01     1.836E-01   6.121E-01
 354.00     355.00     2.817E-01  3.809E-01     1.988E-01   6.626E-01
 355.00     356.00     2.651E-01  3.541E-01     1.858E-01   6.192E-01
 356.00     357.00     2.477E-01  3.269E-01     1.724E-01   5.747E-01
 357.00     358.00     2.121E-01  2.766E-01     1.466E-01   4.887E-01
 358.00     359.00     1.648E-01  2.123E-01     1.131E-01   3.771E-01
 359.00     360.00     2.791E-01  3.555E-01     1.904E-01   6.346E-01
 360.00     361.00     2.604E-01  3.278E-01     1.765E-01   5.882E-01
 361.00     362.00     2.363E-01  2.941E-01     1.591E-01   5.304E-01
 362.00     363.00     2.792E-01  3.436E-01     1.868E-01   6.228E-01
 363.00     364.00     2.499E-01  3.041E-01     1.662E-01   5.540E-01
 364.00     365.00     2.743E-01  3.301E-01     1.813E-01   6.044E-01
 365.00     366.00     3.363E-01  4.002E-01     2.209E-01   7.364E-01
 366.00     367.00     3.580E-01  4.214E-01     2.338E-01   7.794E-01
 367.00     368.00     3.419E-01  3.981E-01     2.220E-01   7.400E-01
 368.00     369.00     3.021E-01  3.480E-01     1.950E-01   6.501E-01
 369.00     370.00     3.644E-01  4.153E-01     2.339E-01   7.797E-01
 370.00     371.00     3.325E-01  3.749E-01     2.122E-01   7.074E-01
 371.00     372.00     3.826E-01  4.269E-01     2.428E-01   8.094E-01
 372.00     373.00     2.841E-01  3.138E-01     1.794E-01   5.979E-01
 373.00     374.00     2.582E-01  2.822E-01     1.621E-01   5.404E-01
 374.00     375.00     2.849E-01  3.082E-01     1.779E-01   5.931E-01
 375.00     376.00     3.232E-01  3.460E-01     2.008E-01   6.692E-01
 376.00     377.00     3.244E-01  3.439E-01     2.005E-01   6.683E-01
 377.00     378.00     3.883E-01  4.075E-01     2.387E-01   7.958E-01
 378.00     379.00     4.253E-01  4.420E-01     2.602E-01   8.673E-01
 379.00     380.00     3.162E-01  3.254E-01     1.925E-01   6.417E-01
 380.00     381.00     3.822E-01  3.895E-01     2.315E-01   7.717E-01
 381.00     382.00     3.609E-01  3.642E-01     2.175E-01   7.251E-01
 382.00     383.00     2.416E-01  2.415E-01     1.450E-01   4.832E-01
 383.00     384.00     2.132E-01  2.111E-01     1.273E-01   4.243E-01
 384.00     385.00     3.214E-01  3.153E-01     1.910E-01   6.367E-01
 385.00     386.00     3.195E-01  3.105E-01     1.890E-01   6.300E-01
 386.00     387.00     3.272E-01  3.150E-01     1.926E-01   6.422E-01
 387.00     388.00     3.054E-01  2.914E-01     1.790E-01   5.968E-01
 388.00     389.00     3.075E-01  2.907E-01     1.795E-01   5.982E-01
 389.00     390.00     3.895E-01  3.649E-01     2.263E-01   7.544E-01
 390.00     391.00     3.843E-01  3.567E-01     2.223E-01   7.410E-01
 391.00     392.00     4.579E-01  4.212E-01     2.637E-01   8.791E-01
 392.00     393.00     3.448E-01  3.144E-01     1.978E-01   6.592E-01
 393.00     394.00     1.505E-01  1.361E-01     8.598E-02   2.866E-01
 394.00     395.00     3.557E-01  3.187E-01     2.023E-01   6.744E-01
 395.00     396.00     4.595E-01  4.083E-01     2.603E-01   8.678E-01
 396.00     397.00     2.709E-01  2.386E-01     1.529E-01   5.096E-01
 397.00     398.00     3.139E-01  2.741E-01     1.764E-01   5.881E-01
 398.00     399.00     5.416E-01  4.690E-01     3.032E-01   1.011E+00
 399.00     400.00     5.655E-01  4.856E-01     3.153E-01   1.051E+00
 \nWEIGHTED IRRADIANCES (W m-2)
 (with normalized action spectra)\n
   1 UV-B, 280-315 nm                          1.250E+00
   2 UV-B*, 280-320 nm                         2.442E+00
   3 UV-A, 315-400 nm                          4.804E+01
   4 vis+, > 400 nm                            0.000E+00
   5 Gaussian, 305 nm, 10 nm FWHM              5.144E-02
   6 Gaussian, 320 nm, 10 nm FWHM              2.900E-01
   7 Gaussian, 340 nm, 10 nm FWHM              5.099E-01
   8 Gaussian, 380 nm, 10 nm FWHM              6.667E-01
   9 RB Meter, model 501                       3.554E-01
  10 Eppley UV Photometer                      4.151E+01
  11 PAR, 400-700 nm, umol m-2 s-1             0.000E+00
  12 Exponential decay, 14 nm/10               4.201E-01
  13 DNA damage, in vitro (Setlow, 1974)       3.279E-03
  14 SCUP-mice (de Gruijl et al., 1993)        2.213E-01
  15 SCUP-human (de Gruijl and van der Leun,   3.921E-01
  16 Standard human erythema (Webb et al., 20  1.658E-01
  17 UV index (WMO, 1994; Webb et al., 2011)   6.631E+00
  18 Erythema, humans (Anders et al., 1995)    7.104E-04
  19 Occupational TLV (ACGIH, 1992)            4.082E-02
  20 Phytoplankton (Boucher et al., 1994)      3.150E-03
  21 Phytoplankton, phaeo (Cullen et al., 199  1.272E-03
  22 Phytoplankton, proro (Cullen et al., 199  1.167E-03
  23 Cataract, pig (Oriowo et al., 2001)       5.180E-01
  24 Plant damage (Caldwell, 1971)             1.837E-01
  25 Plant damage,Flint&Caldwell,2003,orig.    8.048E-01
  26 Plant damage,Flint&Caldwell,2003,ext390   1.147E+00
  27 Previtamin-D3 (CIE 2006)                  3.165E-01
  28 NMSC (CIE 2006)                           3.693E-01
  29 Ebola virus inactivation                  1.096E+00
