\n INPUT PARAMETERS:\n
 RADIATION SCHEME:            4  streams\n
 w-grid:         111   290.000000       400.000000    
 equally spaced z-grid
 z-grid:          81   2.50000004E-02   80.0000000    
  measurement point: index           1  altitude=   2.50000004E-02
 idate =     20230710  esfact(1) =    1.00000000    
 air temperature: USSA, 1976
 air concentrations: USSA, 1976
 ozone profile: USSA, 1976
 DATAE1/SUN/susim_hi.flx
 DATAE1/SUN/atlas3_1994_317_a.dat        
 DATAE1/SUN/neckel.flx                   
 DATAE1/SUN/sao2010.solref.converted     
 aerosols:  Elterman (1968) continental profile
 solar zenith angle =    55.2000008    
 \n SPECTRAL IRRADIANCE (W m-2 nm-1):\n
 LOWER WVL  UPPER WVL  DIRECT     DIFFUSE DOWN  DIFFUSE UP  TOTAL DOWNWELLING
 290.00     291.00     0.000E+00  0.000E+00     0.000E+00   0.000E+00
 291.00     292.00     2.246E-09  2.627E-08     8.556E-09   2.852E-08
 292.00     293.00     1.297E-08  1.237E-07     4.101E-08   1.367E-07
 293.00     294.00     8.517E-08  6.943E-07     2.338E-07   7.795E-07
 294.00     295.00     3.085E-07  2.265E-06     7.720E-07   2.573E-06
 295.00     296.00     1.533E-06  1.030E-05     3.549E-06   1.183E-05
 296.00     297.00     4.721E-06  2.978E-05     1.035E-05   3.450E-05
 297.00     298.00     1.490E-05  8.964E-05     3.136E-05   1.045E-04
 298.00     299.00     2.711E-05  1.573E-04     5.531E-05   1.844E-04
 299.00     300.00     9.011E-05  5.076E-04     1.793E-04   5.977E-04
 300.00     301.00     1.151E-04  6.332E-04     2.245E-04   7.482E-04
 301.00     302.00     3.186E-04  1.720E-03     6.116E-04   2.039E-03
 302.00     303.00     4.973E-04  2.636E-03     9.401E-04   3.134E-03
 303.00     304.00     1.101E-03  5.760E-03     2.058E-03   6.862E-03
 304.00     305.00     1.413E-03  7.270E-03     2.605E-03   8.684E-03
 305.00     306.00     2.340E-03  1.192E-02     4.279E-03   1.426E-02
 306.00     307.00     2.726E-03  1.365E-02     4.914E-03   1.638E-02
 307.00     308.00     4.747E-03  2.359E-02     8.501E-03   2.834E-02
 308.00     309.00     5.787E-03  2.827E-02     1.022E-02   3.405E-02
 309.00     310.00     5.807E-03  2.807E-02     1.016E-02   3.388E-02
 310.00     311.00     8.721E-03  4.161E-02     1.510E-02   5.033E-02
 311.00     312.00     1.205E-02  5.657E-02     2.059E-02   6.862E-02
 312.00     313.00     1.310E-02  6.101E-02     2.224E-02   7.412E-02
 313.00     314.00     1.549E-02  7.072E-02     2.586E-02   8.621E-02
 314.00     315.00     1.699E-02  7.695E-02     2.818E-02   9.395E-02
 315.00     316.00     1.813E-02  8.043E-02     2.957E-02   9.855E-02
 316.00     317.00     1.945E-02  8.547E-02     3.148E-02   1.049E-01
 317.00     318.00     2.807E-02  1.206E-01     4.459E-02   1.486E-01
 318.00     319.00     2.364E-02  1.006E-01     3.727E-02   1.242E-01
 319.00     320.00     2.967E-02  1.238E-01     4.605E-02   1.535E-01
 320.00     321.00     3.720E-02  1.523E-01     5.686E-02   1.895E-01
 321.00     322.00     3.358E-02  1.364E-01     5.098E-02   1.699E-01
 322.00     323.00     3.334E-02  1.311E-01     4.933E-02   1.644E-01
 323.00     324.00     3.678E-02  1.440E-01     5.422E-02   1.807E-01
 324.00     325.00     4.386E-02  1.680E-01     6.356E-02   2.119E-01
 325.00     326.00     4.972E-02  1.860E-01     7.073E-02   2.358E-01
 326.00     327.00     6.324E-02  2.346E-01     8.935E-02   2.978E-01
 327.00     328.00     5.929E-02  2.147E-01     8.219E-02   2.740E-01
 328.00     329.00     5.569E-02  1.976E-01     7.598E-02   2.533E-01
 329.00     330.00     7.510E-02  2.636E-01     1.016E-01   3.387E-01
 330.00     331.00     6.874E-02  2.357E-01     9.133E-02   3.044E-01
 331.00     332.00     6.889E-02  2.314E-01     9.010E-02   3.003E-01
 332.00     333.00     7.005E-02  2.324E-01     9.073E-02   3.024E-01
 333.00     334.00     6.639E-02  2.154E-01     8.455E-02   2.818E-01
 334.00     335.00     7.558E-02  2.410E-01     9.498E-02   3.166E-01
 335.00     336.00     7.836E-02  2.461E-01     9.733E-02   3.244E-01
 336.00     337.00     6.203E-02  1.911E-01     7.593E-02   2.531E-01
 337.00     338.00     6.872E-02  2.074E-01     8.284E-02   2.761E-01
 338.00     339.00     7.417E-02  2.206E-01     8.842E-02   2.947E-01
 339.00     340.00     8.185E-02  2.392E-01     9.632E-02   3.211E-01
 340.00     341.00     8.848E-02  2.538E-01     1.027E-01   3.422E-01
 341.00     342.00     7.998E-02  2.258E-01     9.174E-02   3.058E-01
 342.00     343.00     8.986E-02  2.495E-01     1.018E-01   3.393E-01
 343.00     344.00     9.446E-02  2.576E-01     1.056E-01   3.521E-01
 344.00     345.00     6.697E-02  1.795E-01     7.395E-02   2.465E-01
 345.00     346.00     9.329E-02  2.463E-01     1.019E-01   3.396E-01
 346.00     347.00     8.818E-02  2.288E-01     9.510E-02   3.170E-01
 347.00     348.00     8.726E-02  2.228E-01     9.302E-02   3.101E-01
 348.00     349.00     9.716E-02  2.442E-01     1.024E-01   3.414E-01
 349.00     350.00     8.240E-02  2.038E-01     8.587E-02   2.862E-01
 350.00     351.00     1.168E-01  2.844E-01     1.203E-01   4.011E-01
 351.00     352.00     1.018E-01  2.440E-01     1.037E-01   3.458E-01
 352.00     353.00     9.289E-02  2.193E-01     9.366E-02   3.122E-01
 353.00     354.00     1.131E-01  2.631E-01     1.129E-01   3.763E-01
 354.00     355.00     1.239E-01  2.838E-01     1.223E-01   4.077E-01
 355.00     356.00     1.170E-01  2.642E-01     1.144E-01   3.812E-01
 356.00     357.00     1.098E-01  2.442E-01     1.062E-01   3.540E-01
 357.00     358.00     9.436E-02  2.068E-01     9.036E-02   3.012E-01
 358.00     359.00     7.360E-02  1.590E-01     6.978E-02   2.326E-01
 359.00     360.00     1.252E-01  2.666E-01     1.175E-01   3.917E-01
 360.00     361.00     1.172E-01  2.461E-01     1.090E-01   3.633E-01
 361.00     362.00     1.068E-01  2.211E-01     9.834E-02   3.278E-01
 362.00     363.00     1.266E-01  2.586E-01     1.156E-01   3.852E-01
 363.00     364.00     1.138E-01  2.291E-01     1.029E-01   3.429E-01
 364.00     365.00     1.253E-01  2.490E-01     1.123E-01   3.743E-01
 365.00     366.00     1.541E-01  3.022E-01     1.369E-01   4.563E-01
 366.00     367.00     1.647E-01  3.186E-01     1.450E-01   4.832E-01
 367.00     368.00     1.578E-01  3.013E-01     1.377E-01   4.591E-01
 368.00     369.00     1.399E-01  2.637E-01     1.211E-01   4.036E-01
 369.00     370.00     1.693E-01  3.150E-01     1.453E-01   4.844E-01
 370.00     371.00     1.550E-01  2.847E-01     1.319E-01   4.397E-01
 371.00     372.00     1.789E-01  3.245E-01     1.510E-01   5.034E-01
 372.00     373.00     1.333E-01  2.388E-01     1.116E-01   3.721E-01
 373.00     374.00     1.216E-01  2.150E-01     1.010E-01   3.365E-01
 374.00     375.00     1.345E-01  2.350E-01     1.109E-01   3.696E-01
 375.00     376.00     1.531E-01  2.641E-01     1.252E-01   4.172E-01
 376.00     377.00     1.541E-01  2.628E-01     1.251E-01   4.169E-01
 377.00     378.00     1.850E-01  3.117E-01     1.490E-01   4.967E-01
 378.00     379.00     2.033E-01  3.384E-01     1.625E-01   5.417E-01
 379.00     380.00     1.516E-01  2.494E-01     1.203E-01   4.010E-01
 380.00     381.00     1.837E-01  2.988E-01     1.448E-01   4.825E-01
 381.00     382.00     1.740E-01  2.797E-01     1.361E-01   4.537E-01
 382.00     383.00     1.168E-01  1.857E-01     9.074E-02   3.025E-01
 383.00     384.00     1.034E-01  1.624E-01     7.973E-02   2.658E-01
 384.00     385.00     1.563E-01  2.428E-01     1.197E-01   3.991E-01
 385.00     386.00     1.558E-01  2.393E-01     1.185E-01   3.950E-01
 386.00     387.00     1.599E-01  2.430E-01     1.209E-01   4.029E-01
 387.00     388.00     1.497E-01  2.250E-01     1.124E-01   3.747E-01
 388.00     389.00     1.511E-01  2.247E-01     1.127E-01   3.758E-01
 389.00     390.00     1.919E-01  2.822E-01     1.422E-01   4.741E-01
 390.00     391.00     1.898E-01  2.762E-01     1.398E-01   4.660E-01
 391.00     392.00     2.267E-01  3.264E-01     1.659E-01   5.531E-01
 392.00     393.00     1.712E-01  2.439E-01     1.245E-01   4.150E-01
 393.00     394.00     7.491E-02  1.056E-01     5.416E-02   1.805E-01
 394.00     395.00     1.774E-01  2.476E-01     1.275E-01   4.251E-01
 395.00     396.00     2.298E-01  3.174E-01     1.642E-01   5.472E-01
 396.00     397.00     1.358E-01  1.857E-01     9.645E-02   3.215E-01
 397.00     398.00     1.577E-01  2.135E-01     1.114E-01   3.712E-01
 398.00     399.00     2.727E-01  3.655E-01     1.915E-01   6.382E-01
 399.00     400.00     2.854E-01  3.788E-01     1.993E-01   6.642E-01
 \nWEIGHTED IRRADIANCES (W m-2)
 (with normalized action spectra)\n
   1 UV-B, 280-315 nm                          5.225E-01
   2 UV-B*, 280-320 nm                         1.152E+00
   3 UV-A, 315-400 nm                          2.949E+01
   4 vis+, > 400 nm                            0.000E+00
   5 Gaussian, 305 nm, 10 nm FWHM              1.933E-02
   6 Gaussian, 320 nm, 10 nm FWHM              1.600E-01
   7 Gaussian, 340 nm, 10 nm FWHM              3.096E-01
   8 Gaussian, 380 nm, 10 nm FWHM              4.167E-01
   9 RB Meter, model 501                       1.453E-01
  10 Eppley UV Photometer                      2.494E+01
  11 PAR, 400-700 nm, umol m-2 s-1             0.000E+00
  12 Exponential decay, 14 nm/10               1.823E-01
  13 DNA damage, in vitro (Setlow, 1974)       9.824E-04
  14 SCUP-mice (de Gruijl et al., 1993)        8.182E-02
  15 SCUP-human (de Gruijl and van der Leun,   1.592E-01
  16 Standard human erythema (Webb et al., 20  6.825E-02
  17 UV index (WMO, 1994; Webb et al., 2011)   2.730E+00
  18 Erythema, humans (Anders et al., 1995)    2.549E-04
  19 Occupational TLV (ACGIH, 1992)            1.519E-02
  20 Phytoplankton (Boucher et al., 1994)      1.454E-03
  21 Phytoplankton, phaeo (Cullen et al., 199  7.109E-04
  22 Phytoplankton, proro (Cullen et al., 199  6.220E-04
  23 Cataract, pig (Oriowo et al., 2001)       2.105E-01
  24 Plant damage (Caldwell, 1971)             5.686E-02
  25 Plant damage,Flint&Caldwell,2003,orig.    4.378E-01
  26 Plant damage,Flint&Caldwell,2003,ext390   6.513E-01
  27 Previtamin-D3 (CIE 2006)                  1.135E-01
  28 NMSC (CIE 2006)                           1.476E-01
  29 Ebola virus inactivation                  3.290E-01
