\n INPUT PARAMETERS:\n
 RADIATION SCHEME:            4  streams\n
 w-grid:         111   290.000000       400.000000    
 equally spaced z-grid
 z-grid:          81   2.50000004E-02   80.0000000    
  measurement point: index           1  altitude=   2.50000004E-02
 idate =     20231215  esfact(1) =    1.00000000    
 air temperature: USSA, 1976
 air concentrations: USSA, 1976
 ozone profile: USSA, 1976
 DATAE1/SUN/susim_hi.flx
 DATAE1/SUN/atlas3_1994_317_a.dat        
 DATAE1/SUN/neckel.flx                   
 DATAE1/SUN/sao2010.solref.converted     
 aerosols:  Elterman (1968) continental profile
 solar zenith angle =    9.84000015    
 \n SPECTRAL IRRADIANCE (W m-2 nm-1):\n
 LOWER WVL  UPPER WVL  DIRECT     DIFFUSE DOWN  DIFFUSE UP  TOTAL DOWNWELLING
 290.00     291.00     0.000E+00  0.000E+00     0.000E+00   0.000E+00
 291.00     292.00     1.048E-05  1.410E-05     7.374E-06   2.458E-05
 292.00     293.00     2.750E-05  3.789E-05     1.962E-05   6.539E-05
 293.00     294.00     8.592E-05  1.213E-04     6.217E-05   2.072E-04
 294.00     295.00     1.736E-04  2.500E-04     1.271E-04   4.236E-04
 295.00     296.00     4.646E-04  6.851E-04     3.449E-04   1.150E-03
 296.00     297.00     8.542E-04  1.286E-03     6.421E-04   2.140E-03
 297.00     298.00     1.714E-03  2.629E-03     1.303E-03   4.343E-03
 298.00     299.00     2.125E-03  3.311E-03     1.631E-03   5.435E-03
 299.00     300.00     4.917E-03  7.779E-03     3.809E-03   1.270E-02
 300.00     301.00     4.748E-03  7.592E-03     3.702E-03   1.234E-02
 301.00     302.00     9.721E-03  1.577E-02     7.646E-03   2.549E-02
 302.00     303.00     1.240E-02  2.022E-02     9.788E-03   3.263E-02
 303.00     304.00     2.170E-02  3.577E-02     1.724E-02   5.747E-02
 304.00     305.00     2.419E-02  3.991E-02     1.923E-02   6.410E-02
 305.00     306.00     3.269E-02  5.448E-02     2.615E-02   8.717E-02
 306.00     307.00     3.468E-02  5.757E-02     2.767E-02   9.225E-02
 307.00     308.00     5.102E-02  8.535E-02     4.091E-02   1.364E-01
 308.00     309.00     5.790E-02  9.630E-02     4.626E-02   1.542E-01
 309.00     310.00     5.182E-02  8.632E-02     4.144E-02   1.381E-01
 310.00     311.00     7.152E-02  1.189E-01     5.711E-02   1.904E-01
 311.00     312.00     9.313E-02  1.538E-01     7.407E-02   2.469E-01
 312.00     313.00     9.200E-02  1.521E-01     7.323E-02   2.441E-01
 313.00     314.00     1.054E-01  1.724E-01     8.334E-02   2.778E-01
 314.00     315.00     1.065E-01  1.741E-01     8.418E-02   2.806E-01
 315.00     316.00     1.110E-01  1.794E-01     8.712E-02   2.904E-01
 316.00     317.00     1.116E-01  1.799E-01     8.745E-02   2.915E-01
 317.00     318.00     1.593E-01  2.530E-01     1.237E-01   4.123E-01
 318.00     319.00     1.263E-01  2.002E-01     9.794E-02   3.265E-01
 319.00     320.00     1.555E-01  2.434E-01     1.197E-01   3.989E-01
 320.00     321.00     1.908E-01  2.952E-01     1.458E-01   4.860E-01
 321.00     322.00     1.631E-01  2.518E-01     1.245E-01   4.149E-01
 322.00     323.00     1.659E-01  2.500E-01     1.248E-01   4.159E-01
 323.00     324.00     1.718E-01  2.591E-01     1.293E-01   4.310E-01
 324.00     325.00     2.034E-01  3.023E-01     1.517E-01   5.057E-01
 325.00     326.00     2.300E-01  3.362E-01     1.699E-01   5.662E-01
 326.00     327.00     2.797E-01  4.076E-01     2.062E-01   6.873E-01
 327.00     328.00     2.629E-01  3.764E-01     1.918E-01   6.393E-01
 328.00     329.00     2.447E-01  3.454E-01     1.770E-01   5.901E-01
 329.00     330.00     3.186E-01  4.474E-01     2.298E-01   7.660E-01
 330.00     331.00     2.923E-01  4.035E-01     2.088E-01   6.958E-01
 331.00     332.00     2.912E-01  3.962E-01     2.062E-01   6.873E-01
 332.00     333.00     2.881E-01  3.891E-01     2.032E-01   6.772E-01
 333.00     334.00     2.730E-01  3.629E-01     1.908E-01   6.359E-01
 334.00     335.00     3.070E-01  4.033E-01     2.131E-01   7.103E-01
 335.00     336.00     3.130E-01  4.070E-01     2.160E-01   7.199E-01
 336.00     337.00     2.465E-01  3.161E-01     1.688E-01   5.626E-01
 337.00     338.00     2.727E-01  3.445E-01     1.852E-01   6.173E-01
 338.00     339.00     2.894E-01  3.620E-01     1.954E-01   6.514E-01
 339.00     340.00     3.166E-01  3.912E-01     2.124E-01   7.078E-01
 340.00     341.00     3.409E-01  4.156E-01     2.269E-01   7.565E-01
 341.00     342.00     3.044E-01  3.672E-01     2.015E-01   6.716E-01
 342.00     343.00     3.394E-01  4.044E-01     2.231E-01   7.437E-01
 343.00     344.00     3.548E-01  4.174E-01     2.317E-01   7.722E-01
 344.00     345.00     2.503E-01  2.907E-01     1.623E-01   5.410E-01
 345.00     346.00     3.447E-01  3.962E-01     2.223E-01   7.409E-01
 346.00     347.00     3.245E-01  3.683E-01     2.078E-01   6.928E-01
 347.00     348.00     3.189E-01  3.578E-01     2.030E-01   6.766E-01
 348.00     349.00     3.524E-01  3.909E-01     2.230E-01   7.433E-01
 349.00     350.00     2.970E-01  3.257E-01     1.868E-01   6.227E-01
 350.00     351.00     4.181E-01  4.533E-01     2.614E-01   8.714E-01
 351.00     352.00     3.623E-01  3.884E-01     2.252E-01   7.507E-01
 352.00     353.00     3.285E-01  3.482E-01     2.030E-01   6.767E-01
 353.00     354.00     3.975E-01  4.167E-01     2.443E-01   8.142E-01
 354.00     355.00     4.324E-01  4.484E-01     2.643E-01   8.808E-01
 355.00     356.00     4.062E-01  4.166E-01     2.468E-01   8.228E-01
 356.00     357.00     3.788E-01  3.844E-01     2.290E-01   7.632E-01
 357.00     358.00     3.237E-01  3.250E-01     1.946E-01   6.487E-01
 358.00     359.00     2.510E-01  2.493E-01     1.501E-01   5.004E-01
 359.00     360.00     4.245E-01  4.172E-01     2.525E-01   8.417E-01
 360.00     361.00     3.953E-01  3.845E-01     2.340E-01   7.798E-01
 361.00     362.00     3.581E-01  3.447E-01     2.108E-01   7.028E-01
 362.00     363.00     4.224E-01  4.025E-01     2.475E-01   8.249E-01
 363.00     364.00     3.775E-01  3.560E-01     2.200E-01   7.335E-01
 364.00     365.00     4.136E-01  3.861E-01     2.399E-01   7.998E-01
 365.00     366.00     5.062E-01  4.679E-01     2.922E-01   9.741E-01
 366.00     367.00     5.381E-01  4.924E-01     3.091E-01   1.030E+00
 367.00     368.00     5.131E-01  4.649E-01     2.934E-01   9.780E-01
 368.00     369.00     4.526E-01  4.061E-01     2.576E-01   8.588E-01
 369.00     370.00     5.452E-01  4.844E-01     3.089E-01   1.030E+00
 370.00     371.00     4.967E-01  4.371E-01     2.801E-01   9.338E-01
 371.00     372.00     5.706E-01  4.974E-01     3.204E-01   1.068E+00
 372.00     373.00     4.232E-01  3.654E-01     2.366E-01   7.885E-01
 373.00     374.00     3.840E-01  3.284E-01     2.137E-01   7.125E-01
 374.00     375.00     4.231E-01  3.585E-01     2.345E-01   7.816E-01
 375.00     376.00     4.792E-01  4.023E-01     2.645E-01   8.815E-01
 376.00     377.00     4.803E-01  3.996E-01     2.640E-01   8.799E-01
 377.00     378.00     5.741E-01  4.733E-01     3.142E-01   1.047E+00
 378.00     379.00     6.281E-01  5.131E-01     3.423E-01   1.141E+00
 379.00     380.00     4.664E-01  3.776E-01     2.532E-01   8.439E-01
 380.00     381.00     5.629E-01  4.517E-01     3.044E-01   1.015E+00
 381.00     382.00     5.308E-01  4.222E-01     2.859E-01   9.530E-01
 382.00     383.00     3.549E-01  2.798E-01     1.904E-01   6.348E-01
 383.00     384.00     3.127E-01  2.444E-01     1.672E-01   5.572E-01
 384.00     385.00     4.710E-01  3.649E-01     2.508E-01   8.359E-01
 385.00     386.00     4.675E-01  3.591E-01     2.480E-01   8.267E-01
 386.00     387.00     4.782E-01  3.642E-01     2.527E-01   8.424E-01
 387.00     388.00     4.458E-01  3.367E-01     2.348E-01   7.826E-01
 388.00     389.00     4.483E-01  3.358E-01     2.352E-01   7.841E-01
 389.00     390.00     5.672E-01  4.213E-01     2.966E-01   9.885E-01
 390.00     391.00     5.589E-01  4.117E-01     2.912E-01   9.706E-01
 391.00     392.00     6.652E-01  4.860E-01     3.453E-01   1.151E+00
 392.00     393.00     5.003E-01  3.626E-01     2.589E-01   8.629E-01
 393.00     394.00     2.182E-01  1.568E-01     1.125E-01   3.750E-01
 394.00     395.00     5.150E-01  3.672E-01     2.647E-01   8.822E-01
 395.00     396.00     6.646E-01  4.702E-01     3.404E-01   1.135E+00
 396.00     397.00     3.914E-01  2.747E-01     1.998E-01   6.661E-01
 397.00     398.00     4.530E-01  3.155E-01     2.305E-01   7.684E-01
 398.00     399.00     7.807E-01  5.394E-01     3.960E-01   1.320E+00
 399.00     400.00     8.143E-01  5.583E-01     4.118E-01   1.373E+00
 \nWEIGHTED IRRADIANCES (W m-2)
 (with normalized action spectra)\n
   1 UV-B, 280-315 nm                          2.066E+00
   2 UV-B*, 280-320 nm                         3.786E+00
   3 UV-A, 315-400 nm                          6.393E+01
   4 vis+, > 400 nm                            0.000E+00
   5 Gaussian, 305 nm, 10 nm FWHM              8.989E-02
   6 Gaussian, 320 nm, 10 nm FWHM              4.098E-01
   7 Gaussian, 340 nm, 10 nm FWHM              6.840E-01
   8 Gaussian, 380 nm, 10 nm FWHM              8.768E-01
   9 RB Meter, model 501                       6.079E-01
  10 Eppley UV Photometer                      5.601E+01
  11 PAR, 400-700 nm, umol m-2 s-1             0.000E+00
  12 Exponential decay, 14 nm/10               7.029E-01
  13 DNA damage, in vitro (Setlow, 1974)       6.931E-03
  14 SCUP-mice (de Gruijl et al., 1993)        4.051E-01
  15 SCUP-human (de Gruijl and van der Leun,   6.742E-01
  16 Standard human erythema (Webb et al., 20  2.891E-01
  17 UV index (WMO, 1994; Webb et al., 2011)   1.157E+01
  18 Erythema, humans (Anders et al., 1995)    1.319E-03
  19 Occupational TLV (ACGIH, 1992)            7.678E-02
  20 Phytoplankton (Boucher et al., 1994)      5.084E-03
  21 Phytoplankton, phaeo (Cullen et al., 199  1.816E-03
  22 Phytoplankton, proro (Cullen et al., 199  1.722E-03
  23 Cataract, pig (Oriowo et al., 2001)       8.895E-01
  24 Plant damage (Caldwell, 1971)             3.616E-01
  25 Plant damage,Flint&Caldwell,2003,orig.    1.183E+00
  26 Plant damage,Flint&Caldwell,2003,ext390   1.634E+00
  27 Previtamin-D3 (CIE 2006)                  5.758E-01
  28 NMSC (CIE 2006)                           6.419E-01
  29 Ebola virus inactivation                  2.254E+00
