\n INPUT PARAMETERS:\n
 RADIATION SCHEME:            4  streams\n
 w-grid:         111   290.000000       400.000000    
 equally spaced z-grid
 z-grid:          81   2.50000004E-02   80.0000000    
  measurement point: index           1  altitude=   2.50000004E-02
 idate =     20230718  esfact(1) =    1.00000000    
 air temperature: USSA, 1976
 air concentrations: USSA, 1976
 ozone profile: USSA, 1976
 DATAE1/SUN/susim_hi.flx
 DATAE1/SUN/atlas3_1994_317_a.dat        
 DATAE1/SUN/neckel.flx                   
 DATAE1/SUN/sao2010.solref.converted     
 aerosols:  Elterman (1968) continental profile
 solar zenith angle =    53.9000015    
 \n SPECTRAL IRRADIANCE (W m-2 nm-1):\n
 LOWER WVL  UPPER WVL  DIRECT     DIFFUSE DOWN  DIFFUSE UP  TOTAL DOWNWELLING
 290.00     291.00     0.000E+00  0.000E+00     0.000E+00   0.000E+00
 291.00     292.00     4.157E-09  3.624E-08     1.212E-08   4.040E-08
 292.00     293.00     2.265E-08  1.701E-07     5.782E-08   1.927E-07
 293.00     294.00     1.408E-07  9.425E-07     3.250E-07   1.083E-06
 294.00     295.00     4.885E-07  3.026E-06     1.054E-06   3.514E-06
 295.00     296.00     2.319E-06  1.345E-05     4.732E-06   1.577E-05
 296.00     297.00     6.874E-06  3.805E-05     1.348E-05   4.493E-05
 297.00     298.00     2.099E-05  1.121E-04     3.992E-05   1.331E-04
 298.00     299.00     3.711E-05  1.928E-04     6.897E-05   2.299E-04
 299.00     300.00     1.201E-04  6.100E-04     2.190E-04   7.301E-04
 300.00     301.00     1.502E-04  7.491E-04     2.698E-04   8.993E-04
 301.00     302.00     4.068E-04  1.999E-03     7.219E-04   2.406E-03
 302.00     303.00     6.256E-04  3.028E-03     1.096E-03   3.654E-03
 303.00     304.00     1.362E-03  6.522E-03     2.365E-03   7.884E-03
 304.00     305.00     1.729E-03  8.163E-03     2.968E-03   9.892E-03
 305.00     306.00     2.821E-03  1.322E-02     4.812E-03   1.604E-02
 306.00     307.00     3.263E-03  1.505E-02     5.495E-03   1.832E-02
 307.00     308.00     5.612E-03  2.573E-02     9.403E-03   3.134E-02
 308.00     309.00     6.805E-03  3.071E-02     1.125E-02   3.751E-02
 309.00     310.00     6.771E-03  3.027E-02     1.111E-02   3.705E-02
 310.00     311.00     1.011E-02  4.465E-02     1.643E-02   5.475E-02
 311.00     312.00     1.390E-02  6.049E-02     2.232E-02   7.439E-02
 312.00     313.00     1.501E-02  6.484E-02     2.396E-02   7.986E-02
 313.00     314.00     1.771E-02  7.505E-02     2.783E-02   9.275E-02
 314.00     315.00     1.931E-02  8.123E-02     3.016E-02   1.005E-01
 315.00     316.00     2.056E-02  8.481E-02     3.161E-02   1.054E-01
 316.00     317.00     2.196E-02  8.976E-02     3.351E-02   1.117E-01
 317.00     318.00     3.166E-02  1.266E-01     4.748E-02   1.583E-01
 318.00     319.00     2.654E-02  1.052E-01     3.953E-02   1.318E-01
 319.00     320.00     3.327E-02  1.294E-01     4.881E-02   1.627E-01
 320.00     321.00     4.164E-02  1.591E-01     6.021E-02   2.007E-01
 321.00     322.00     3.744E-02  1.419E-01     5.380E-02   1.793E-01
 322.00     323.00     3.723E-02  1.367E-01     5.219E-02   1.740E-01
 323.00     324.00     4.089E-02  1.496E-01     5.713E-02   1.904E-01
 324.00     325.00     4.873E-02  1.745E-01     6.698E-02   2.233E-01
 325.00     326.00     5.523E-02  1.933E-01     7.457E-02   2.486E-01
 326.00     327.00     7.001E-02  2.431E-01     9.394E-02   3.131E-01
 327.00     328.00     6.565E-02  2.226E-01     8.648E-02   2.883E-01
 328.00     329.00     6.162E-02  2.049E-01     7.995E-02   2.665E-01
 329.00     330.00     8.289E-02  2.728E-01     1.067E-01   3.557E-01
 330.00     331.00     7.589E-02  2.440E-01     9.597E-02   3.199E-01
 331.00     332.00     7.602E-02  2.396E-01     9.469E-02   3.156E-01
 332.00     333.00     7.714E-02  2.402E-01     9.521E-02   3.174E-01
 333.00     334.00     7.311E-02  2.228E-01     8.878E-02   2.959E-01
 334.00     335.00     8.315E-02  2.492E-01     9.969E-02   3.323E-01
 335.00     336.00     8.610E-02  2.542E-01     1.021E-01   3.403E-01
 336.00     337.00     6.814E-02  1.974E-01     7.965E-02   2.655E-01
 337.00     338.00     7.548E-02  2.143E-01     8.693E-02   2.898E-01
 338.00     339.00     8.135E-02  2.277E-01     9.272E-02   3.091E-01
 339.00     340.00     8.973E-02  2.469E-01     1.010E-01   3.366E-01
 340.00     341.00     9.696E-02  2.620E-01     1.077E-01   3.589E-01
 341.00     342.00     8.757E-02  2.330E-01     9.617E-02   3.206E-01
 342.00     343.00     9.833E-02  2.573E-01     1.067E-01   3.557E-01
 343.00     344.00     1.033E-01  2.658E-01     1.107E-01   3.691E-01
 344.00     345.00     7.322E-02  1.852E-01     7.752E-02   2.584E-01
 345.00     346.00     1.019E-01  2.540E-01     1.068E-01   3.559E-01
 346.00     347.00     9.630E-02  2.359E-01     9.967E-02   3.322E-01
 347.00     348.00     9.525E-02  2.297E-01     9.748E-02   3.249E-01
 348.00     349.00     1.060E-01  2.517E-01     1.073E-01   3.577E-01
 349.00     350.00     8.985E-02  2.101E-01     8.998E-02   2.999E-01
 350.00     351.00     1.273E-01  2.930E-01     1.261E-01   4.203E-01
 351.00     352.00     1.109E-01  2.514E-01     1.087E-01   3.623E-01
 352.00     353.00     1.011E-01  2.259E-01     9.812E-02   3.271E-01
 353.00     354.00     1.231E-01  2.710E-01     1.182E-01   3.941E-01
 354.00     355.00     1.347E-01  2.923E-01     1.281E-01   4.270E-01
 355.00     356.00     1.273E-01  2.720E-01     1.198E-01   3.993E-01
 356.00     357.00     1.193E-01  2.514E-01     1.112E-01   3.708E-01
 357.00     358.00     1.025E-01  2.129E-01     9.463E-02   3.154E-01
 358.00     359.00     7.993E-02  1.637E-01     7.308E-02   2.436E-01
 359.00     360.00     1.359E-01  2.743E-01     1.231E-01   4.102E-01
 360.00     361.00     1.272E-01  2.533E-01     1.141E-01   3.804E-01
 361.00     362.00     1.158E-01  2.274E-01     1.030E-01   3.432E-01
 362.00     363.00     1.373E-01  2.660E-01     1.210E-01   4.033E-01
 363.00     364.00     1.233E-01  2.357E-01     1.077E-01   3.590E-01
 364.00     365.00     1.357E-01  2.561E-01     1.175E-01   3.918E-01
 365.00     366.00     1.669E-01  3.108E-01     1.433E-01   4.777E-01
 366.00     367.00     1.783E-01  3.276E-01     1.518E-01   5.059E-01
 367.00     368.00     1.708E-01  3.098E-01     1.442E-01   4.806E-01
 368.00     369.00     1.513E-01  2.711E-01     1.267E-01   4.224E-01
 369.00     370.00     1.831E-01  3.238E-01     1.521E-01   5.070E-01
 370.00     371.00     1.676E-01  2.926E-01     1.381E-01   4.602E-01
 371.00     372.00     1.934E-01  3.335E-01     1.581E-01   5.269E-01
 372.00     373.00     1.440E-01  2.454E-01     1.168E-01   3.894E-01
 373.00     374.00     1.313E-01  2.209E-01     1.056E-01   3.521E-01
 374.00     375.00     1.452E-01  2.415E-01     1.160E-01   3.867E-01
 375.00     376.00     1.652E-01  2.714E-01     1.310E-01   4.365E-01
 376.00     377.00     1.663E-01  2.699E-01     1.308E-01   4.362E-01
 377.00     378.00     1.995E-01  3.201E-01     1.559E-01   5.197E-01
 378.00     379.00     2.191E-01  3.475E-01     1.700E-01   5.667E-01
 379.00     380.00     1.634E-01  2.561E-01     1.258E-01   4.195E-01
 380.00     381.00     1.980E-01  3.068E-01     1.514E-01   5.047E-01
 381.00     382.00     1.874E-01  2.871E-01     1.424E-01   4.746E-01
 382.00     383.00     1.258E-01  1.906E-01     9.491E-02   3.164E-01
 383.00     384.00     1.113E-01  1.667E-01     8.339E-02   2.780E-01
 384.00     385.00     1.682E-01  2.492E-01     1.252E-01   4.174E-01
 385.00     386.00     1.676E-01  2.456E-01     1.239E-01   4.131E-01
 386.00     387.00     1.720E-01  2.494E-01     1.264E-01   4.214E-01
 387.00     388.00     1.609E-01  2.308E-01     1.175E-01   3.918E-01
 388.00     389.00     1.624E-01  2.305E-01     1.179E-01   3.929E-01
 389.00     390.00     2.062E-01  2.895E-01     1.487E-01   4.958E-01
 390.00     391.00     2.039E-01  2.833E-01     1.462E-01   4.872E-01
 391.00     392.00     2.435E-01  3.348E-01     1.735E-01   5.783E-01
 392.00     393.00     1.838E-01  2.501E-01     1.302E-01   4.339E-01
 393.00     394.00     8.041E-02  1.083E-01     5.662E-02   1.887E-01
 394.00     395.00     1.904E-01  2.539E-01     1.333E-01   4.443E-01
 395.00     396.00     2.465E-01  3.255E-01     1.716E-01   5.720E-01
 396.00     397.00     1.457E-01  1.904E-01     1.008E-01   3.360E-01
 397.00     398.00     1.691E-01  2.189E-01     1.164E-01   3.880E-01
 398.00     399.00     2.923E-01  3.747E-01     2.001E-01   6.670E-01
 399.00     400.00     3.059E-01  3.883E-01     2.083E-01   6.942E-01
 \nWEIGHTED IRRADIANCES (W m-2)
 (with normalized action spectra)\n
   1 UV-B, 280-315 nm                          5.684E-01
   2 UV-B*, 280-320 nm                         1.238E+00
   3 UV-A, 315-400 nm                          3.090E+01
   4 vis+, > 400 nm                            0.000E+00
   5 Gaussian, 305 nm, 10 nm FWHM              2.125E-02
   6 Gaussian, 320 nm, 10 nm FWHM              1.694E-01
   7 Gaussian, 340 nm, 10 nm FWHM              3.246E-01
   8 Gaussian, 380 nm, 10 nm FWHM              4.359E-01
   9 RB Meter, model 501                       1.581E-01
  10 Eppley UV Photometer                      2.618E+01
  11 PAR, 400-700 nm, umol m-2 s-1             0.000E+00
  12 Exponential decay, 14 nm/10               1.970E-01
  13 DNA damage, in vitro (Setlow, 1974)       1.098E-03
  14 SCUP-mice (de Gruijl et al., 1993)        8.977E-02
  15 SCUP-human (de Gruijl and van der Leun,   1.732E-01
  16 Standard human erythema (Webb et al., 20  7.403E-02
  17 UV index (WMO, 1994; Webb et al., 2011)   2.961E+00
  18 Erythema, humans (Anders et al., 1995)    2.804E-04
  19 Occupational TLV (ACGIH, 1992)            1.661E-02
  20 Phytoplankton (Boucher et al., 1994)      1.562E-03
  21 Phytoplankton, phaeo (Cullen et al., 199  7.506E-04
  22 Phytoplankton, proro (Cullen et al., 199  6.594E-04
  23 Cataract, pig (Oriowo et al., 2001)       2.291E-01
  24 Plant damage (Caldwell, 1971)             6.366E-02
  25 Plant damage,Flint&Caldwell,2003,orig.    4.630E-01
  26 Plant damage,Flint&Caldwell,2003,ext390   6.864E-01
  27 Previtamin-D3 (CIE 2006)                  1.252E-01
  28 NMSC (CIE 2006)                           1.608E-01
  29 Ebola virus inactivation                  3.686E-01
