

 \n INPUT PARAMETERS:\n
 RADIATION SCHEME:            4  streams\n
 w-grid:         111   290.000000       400.000000    
 equally spaced z-grid
 z-grid:          81   2.50000004E-02   80.0000000    
  measurement point: index           1  altitude=   2.50000004E-02
 idate =     20230503  esfact(1) =    1.00000000    
 air temperature: USSA, 1976
 air concentrations: USSA, 1976
 ozone profile: USSA, 1976
 DATAE1/SUN/susim_hi.flx
 DATAE1/SUN/atlas3_1994_317_a.dat        
 DATAE1/SUN/neckel.flx                   
 DATAE1/SUN/sao2010.solref.converted     
 aerosols:  Elterman (1968) continental profile
 solar zenith angle =    41.2999992    
 \n SPECTRAL IRRADIANCE (W m-2 nm-1):\n
 LOWER WVL  UPPER WVL  DIRECT     DIFFUSE DOWN  DIFFUSE UP  TOTAL DOWNWELLING
 290.00     291.00     0.000E+00  0.000E+00     0.000E+00   0.000E+00
 291.00     292.00     2.650E-07  6.329E-07     8.979E-08   8.979E-07
 292.00     293.00     9.771E-07  2.337E-06     3.314E-07   3.314E-06
 293.00     294.00     4.206E-06  1.009E-05     1.429E-06   1.429E-05
 294.00     295.00     1.093E-05  2.625E-05     3.718E-06   3.718E-05
 295.00     296.00     3.821E-05  9.222E-05     1.304E-05   1.304E-04
 296.00     297.00     8.774E-05  2.127E-04     3.004E-05   3.004E-04
 297.00     298.00     2.141E-04  5.206E-04     7.347E-05   7.347E-04
 298.00     299.00     3.131E-04  7.632E-04     1.076E-04   1.076E-03
 299.00     300.00     8.470E-04  2.070E-03     2.917E-04   2.917E-03
 300.00     301.00     9.227E-04  2.255E-03     3.178E-04   3.178E-03
 301.00     302.00     2.152E-03  5.276E-03     7.428E-04   7.428E-03
 302.00     303.00     2.995E-03  7.321E-03     1.032E-03   1.032E-02
 303.00     304.00     5.800E-03  1.420E-02     2.000E-03   2.000E-02
 304.00     305.00     6.870E-03  1.672E-02     2.359E-03   2.359E-02
 305.00     306.00     1.014E-02  2.472E-02     3.486E-03   3.486E-02
 306.00     307.00     1.119E-02  2.705E-02     3.824E-03   3.824E-02
 307.00     308.00     1.771E-02  4.283E-02     6.055E-03   6.055E-02
 308.00     309.00     2.073E-02  4.960E-02     7.033E-03   7.033E-02
 309.00     310.00     1.949E-02  4.646E-02     6.595E-03   6.595E-02
 310.00     311.00     2.790E-02  6.603E-02     9.392E-03   9.392E-02
 311.00     312.00     3.727E-02  8.726E-02     1.245E-02   1.245E-01
 312.00     313.00     3.837E-02  8.956E-02     1.279E-02   1.279E-01
 313.00     314.00     4.456E-02  1.025E-01     1.471E-02   1.471E-01
 314.00     315.00     4.665E-02  1.069E-01     1.535E-02   1.535E-01
 315.00     316.00     4.912E-02  1.108E-01     1.599E-02   1.599E-01
 316.00     317.00     5.078E-02  1.139E-01     1.647E-02   1.647E-01
 317.00     318.00     7.282E-02  1.604E-01     2.332E-02   2.332E-01
 318.00     319.00     5.927E-02  1.298E-01     1.890E-02   1.890E-01
 319.00     320.00     7.357E-02  1.586E-01     2.322E-02   2.322E-01
 320.00     321.00     9.112E-02  1.936E-01     2.847E-02   2.847E-01
 321.00     322.00     7.973E-02  1.686E-01     2.483E-02   2.483E-01
 322.00     323.00     8.027E-02  1.651E-01     2.454E-02   2.454E-01
 323.00     324.00     8.543E-02  1.754E-01     2.608E-02   2.608E-01
 324.00     325.00     1.014E-01  2.047E-01     3.061E-02   3.061E-01
 325.00     326.00     1.148E-01  2.273E-01     3.421E-02   3.421E-01
 326.00     327.00     1.424E-01  2.802E-01     4.225E-02   4.225E-01
 327.00     328.00     1.337E-01  2.578E-01     3.915E-02   3.915E-01
 328.00     329.00     1.249E-01  2.369E-01     3.618E-02   3.618E-01
 329.00     330.00     1.651E-01  3.108E-01     4.759E-02   4.759E-01
 330.00     331.00     1.513E-01  2.793E-01     4.306E-02   4.306E-01
 331.00     332.00     1.511E-01  2.743E-01     4.254E-02   4.254E-01
 332.00     333.00     1.513E-01  2.720E-01     4.232E-02   4.232E-01
 333.00     334.00     1.434E-01  2.531E-01     3.965E-02   3.965E-01
 334.00     335.00     1.621E-01  2.821E-01     4.442E-02   4.442E-01
 335.00     336.00     1.664E-01  2.861E-01     4.525E-02   4.525E-01
 336.00     337.00     1.314E-01  2.222E-01     3.536E-02   3.536E-01
 337.00     338.00     1.454E-01  2.419E-01     3.873E-02   3.873E-01
 338.00     339.00     1.554E-01  2.555E-01     4.109E-02   4.109E-01
 339.00     340.00     1.707E-01  2.766E-01     4.473E-02   4.473E-01
 340.00     341.00     1.841E-01  2.937E-01     4.778E-02   4.778E-01
 341.00     342.00     1.653E-01  2.603E-01     4.256E-02   4.256E-01
 342.00     343.00     1.849E-01  2.871E-01     4.719E-02   4.719E-01
 343.00     344.00     1.937E-01  2.964E-01     4.902E-02   4.902E-01
 344.00     345.00     1.370E-01  2.066E-01     3.435E-02   3.435E-01
 345.00     346.00     1.895E-01  2.824E-01     4.719E-02   4.719E-01
 346.00     347.00     1.787E-01  2.625E-01     4.412E-02   4.412E-01
 347.00     348.00     1.762E-01  2.552E-01     4.314E-02   4.314E-01
 348.00     349.00     1.953E-01  2.793E-01     4.746E-02   4.746E-01
 349.00     350.00     1.651E-01  2.329E-01     3.980E-02   3.980E-01
 350.00     351.00     2.330E-01  3.246E-01     5.576E-02   5.576E-01
 351.00     352.00     2.025E-01  2.783E-01     4.808E-02   4.808E-01
 352.00     353.00     1.841E-01  2.498E-01     4.339E-02   4.339E-01
 353.00     354.00     2.234E-01  2.994E-01     5.227E-02   5.227E-01
 354.00     355.00     2.437E-01  3.225E-01     5.661E-02   5.661E-01
 355.00     356.00     2.295E-01  2.999E-01     5.294E-02   5.294E-01
 356.00     357.00     2.145E-01  2.770E-01     4.915E-02   4.915E-01
 357.00     358.00     1.838E-01  2.344E-01     4.182E-02   4.182E-01
 358.00     359.00     1.429E-01  1.800E-01     3.229E-02   3.229E-01
 359.00     360.00     2.422E-01  3.015E-01     5.437E-02   5.437E-01
 360.00     361.00     2.261E-01  2.781E-01     5.042E-02   5.042E-01
 361.00     362.00     2.053E-01  2.496E-01     4.548E-02   4.548E-01
 362.00     363.00     2.427E-01  2.917E-01     5.344E-02   5.344E-01
 363.00     364.00     2.174E-01  2.583E-01     4.756E-02   4.756E-01
 364.00     365.00     2.387E-01  2.804E-01     5.191E-02   5.191E-01
 365.00     366.00     2.928E-01  3.400E-01     6.328E-02   6.328E-01
 366.00     367.00     3.119E-01  3.582E-01     6.701E-02   6.701E-01
 367.00     368.00     2.981E-01  3.384E-01     6.365E-02   6.365E-01
 368.00     369.00     2.635E-01  2.959E-01     5.595E-02   5.595E-01
 369.00     370.00     3.181E-01  3.533E-01     6.714E-02   6.714E-01
 370.00     371.00     2.904E-01  3.190E-01     6.094E-02   6.094E-01
 371.00     372.00     3.343E-01  3.634E-01     6.976E-02   6.976E-01
 372.00     373.00     2.484E-01  2.672E-01     5.156E-02   5.156E-01
 373.00     374.00     2.259E-01  2.404E-01     4.662E-02   4.662E-01
 374.00     375.00     2.494E-01  2.626E-01     5.119E-02   5.119E-01
 375.00     376.00     2.830E-01  2.949E-01     5.779E-02   5.779E-01
 376.00     377.00     2.842E-01  2.931E-01     5.773E-02   5.773E-01
 377.00     378.00     3.403E-01  3.475E-01     6.878E-02   6.878E-01
 378.00     379.00     3.730E-01  3.770E-01     7.499E-02   7.499E-01
 379.00     380.00     2.775E-01  2.776E-01     5.551E-02   5.551E-01
 380.00     381.00     3.355E-01  3.324E-01     6.679E-02   6.679E-01
 381.00     382.00     3.169E-01  3.109E-01     6.279E-02   6.279E-01
 382.00     383.00     2.123E-01  2.062E-01     4.185E-02   4.185E-01
 383.00     384.00     1.874E-01  1.803E-01     3.677E-02   3.677E-01
 384.00     385.00     2.827E-01  2.694E-01     5.520E-02   5.520E-01
 385.00     386.00     2.811E-01  2.653E-01     5.464E-02   5.464E-01
 386.00     387.00     2.880E-01  2.692E-01     5.572E-02   5.572E-01
 387.00     388.00     2.690E-01  2.491E-01     5.181E-02   5.181E-01
 388.00     389.00     2.709E-01  2.486E-01     5.195E-02   5.195E-01
 389.00     390.00     3.433E-01  3.121E-01     6.555E-02   6.555E-01
 390.00     391.00     3.388E-01  3.053E-01     6.441E-02   6.441E-01
 391.00     392.00     4.039E-01  3.606E-01     7.644E-02   7.644E-01
 392.00     393.00     3.043E-01  2.692E-01     5.735E-02   5.735E-01
 393.00     394.00     1.329E-01  1.165E-01     2.494E-02   2.494E-01
 394.00     395.00     3.142E-01  2.730E-01     5.872E-02   5.872E-01
 395.00     396.00     4.060E-01  3.498E-01     7.558E-02   7.558E-01
 396.00     397.00     2.395E-01  2.045E-01     4.440E-02   4.440E-01
 397.00     398.00     2.776E-01  2.350E-01     5.126E-02   5.126E-01
 398.00     399.00     4.791E-01  4.021E-01     8.812E-02   8.812E-01
 399.00     400.00     5.004E-01  4.165E-01     9.169E-02   9.169E-01
 \nWEIGHTED IRRADIANCES (W m-2)
 (with normalized action spectra)\n
   1 UV-B, 280-315 nm                          9.866E-01
   2 UV-B*, 280-320 nm                         1.966E+00
   3 UV-A, 315-400 nm                          4.115E+01
   4 vis+, > 400 nm                            0.000E+00
   5 Gaussian, 305 nm, 10 nm FWHM              3.991E-02
   6 Gaussian, 320 nm, 10 nm FWHM              2.400E-01
   7 Gaussian, 340 nm, 10 nm FWHM              4.319E-01
   8 Gaussian, 380 nm, 10 nm FWHM              5.768E-01
   9 RB Meter, model 501                       2.786E-01
  10 Eppley UV Photometer                      3.519E+01
  11 PAR, 400-700 nm, umol m-2 s-1             0.000E+00
  12 Exponential decay, 14 nm/10               3.322E-01
  13 DNA damage, in vitro (Setlow, 1974)       2.423E-03
  14 SCUP-mice (de Gruijl et al., 1993)        1.702E-01
  15 SCUP-human (de Gruijl and van der Leun,   3.071E-01
  16 Standard human erythema (Webb et al., 20  1.298E-01
  17 UV index (WMO, 1994; Webb et al., 2011)   5.193E+00
  18 Erythema, humans (Anders et al., 1995)    5.443E-04
  19 Occupational TLV (ACGIH, 1992)            3.132E-02
  20 Phytoplankton (Boucher et al., 1994)      2.519E-03
  21 Phytoplankton, phaeo (Cullen et al., 199  1.061E-03
  22 Phytoplankton, proro (Cullen et al., 199  9.619E-04
  23 Cataract, pig (Oriowo et al., 2001)       4.057E-01
  24 Plant damage (Caldwell, 1971)             1.377E-01
  25 Plant damage,Flint&Caldwell,2003,orig.    6.659E-01
  26 Plant damage,Flint&Caldwell,2003,ext390   9.616E-01
  27 Previtamin-D3 (CIE 2006)                  2.430E-01
  28 NMSC (CIE 2006)                           2.884E-01
  29 Ebola virus inactivation                  8.141E-01
