\n INPUT PARAMETERS:\n
 RADIATION SCHEME:            4  streams\n
 w-grid:         111   290.000000       400.000000    
 equally spaced z-grid
 z-grid:          81   2.50000004E-02   80.0000000    
  measurement point: index           1  altitude=   2.50000004E-02
 idate =     20230115  esfact(1) =    1.00000000    
 air temperature: USSA, 1976
 air concentrations: USSA, 1976
 ozone profile: USSA, 1976
 DATAE1/SUN/susim_hi.flx
 DATAE1/SUN/atlas3_1994_317_a.dat        
 DATAE1/SUN/neckel.flx                   
 DATAE1/SUN/sao2010.solref.converted     
 aerosols:  Elterman (1968) continental profile
 solar zenith angle =    11.8999996    
 \n SPECTRAL IRRADIANCE (W m-2 nm-1):\n
 LOWER WVL  UPPER WVL  DIRECT     DIFFUSE DOWN  DIFFUSE UP  TOTAL DOWNWELLING
 290.00     291.00     0.000E+00  0.000E+00     0.000E+00   0.000E+00
 291.00     292.00     9.650E-06  1.314E-05     6.837E-06   2.279E-05
 292.00     293.00     2.551E-05  3.559E-05     1.833E-05   6.109E-05
 293.00     294.00     8.025E-05  1.147E-04     5.849E-05   1.950E-04
 294.00     295.00     1.631E-04  2.377E-04     1.202E-04   4.008E-04
 295.00     296.00     4.390E-04  6.553E-04     3.283E-04   1.094E-03
 296.00     297.00     8.112E-04  1.236E-03     6.142E-04   2.047E-03
 297.00     298.00     1.635E-03  2.537E-03     1.252E-03   4.172E-03
 298.00     299.00     2.034E-03  3.207E-03     1.572E-03   5.241E-03
 299.00     300.00     4.724E-03  7.560E-03     3.685E-03   1.228E-02
 300.00     301.00     4.574E-03  7.397E-03     3.591E-03   1.197E-02
 301.00     302.00     9.392E-03  1.540E-02     7.439E-03   2.480E-02
 302.00     303.00     1.200E-02  1.980E-02     9.540E-03   3.180E-02
 303.00     304.00     2.105E-02  3.509E-02     1.684E-02   5.614E-02
 304.00     305.00     2.350E-02  3.920E-02     1.881E-02   6.270E-02
 305.00     306.00     3.182E-02  5.361E-02     2.563E-02   8.544E-02
 306.00     307.00     3.379E-02  5.670E-02     2.714E-02   9.048E-02
 307.00     308.00     4.979E-02  8.419E-02     4.019E-02   1.340E-01
 308.00     309.00     5.654E-02  9.504E-02     4.547E-02   1.516E-01
 309.00     310.00     5.066E-02  8.529E-02     4.079E-02   1.360E-01
 310.00     311.00     6.997E-02  1.175E-01     5.625E-02   1.875E-01
 311.00     312.00     9.117E-02  1.521E-01     7.298E-02   2.433E-01
 312.00     313.00     9.015E-02  1.506E-01     7.222E-02   2.407E-01
 313.00     314.00     1.033E-01  1.707E-01     8.222E-02   2.741E-01
 314.00     315.00     1.044E-01  1.726E-01     8.311E-02   2.770E-01
 315.00     316.00     1.089E-01  1.778E-01     8.602E-02   2.867E-01
 316.00     317.00     1.096E-01  1.784E-01     8.639E-02   2.880E-01
 317.00     318.00     1.564E-01  2.509E-01     1.222E-01   4.073E-01
 318.00     319.00     1.241E-01  1.986E-01     9.682E-02   3.227E-01
 319.00     320.00     1.528E-01  2.416E-01     1.183E-01   3.943E-01
 320.00     321.00     1.875E-01  2.930E-01     1.442E-01   4.805E-01
 321.00     322.00     1.604E-01  2.501E-01     1.231E-01   4.105E-01
 322.00     323.00     1.631E-01  2.482E-01     1.234E-01   4.113E-01
 323.00     324.00     1.690E-01  2.575E-01     1.279E-01   4.265E-01
 324.00     325.00     2.001E-01  3.003E-01     1.501E-01   5.004E-01
 325.00     326.00     2.263E-01  3.340E-01     1.681E-01   5.603E-01
 326.00     327.00     2.753E-01  4.050E-01     2.041E-01   6.803E-01
 327.00     328.00     2.588E-01  3.740E-01     1.898E-01   6.328E-01
 328.00     329.00     2.408E-01  3.433E-01     1.752E-01   5.841E-01
 329.00     330.00     3.137E-01  4.447E-01     2.275E-01   7.584E-01
 330.00     331.00     2.878E-01  4.011E-01     2.067E-01   6.889E-01
 331.00     332.00     2.867E-01  3.938E-01     2.041E-01   6.804E-01
 332.00     333.00     2.837E-01  3.868E-01     2.012E-01   6.705E-01
 333.00     334.00     2.689E-01  3.608E-01     1.889E-01   6.297E-01
 334.00     335.00     3.024E-01  4.009E-01     2.110E-01   7.034E-01
 335.00     336.00     3.083E-01  4.046E-01     2.139E-01   7.130E-01
 336.00     337.00     2.429E-01  3.143E-01     1.671E-01   5.572E-01
 337.00     338.00     2.687E-01  3.426E-01     1.834E-01   6.113E-01
 338.00     339.00     2.851E-01  3.600E-01     1.935E-01   6.451E-01
 339.00     340.00     3.120E-01  3.891E-01     2.103E-01   7.011E-01
 340.00     341.00     3.359E-01  4.133E-01     2.248E-01   7.492E-01
 341.00     342.00     3.001E-01  3.651E-01     1.996E-01   6.652E-01
 342.00     343.00     3.345E-01  4.021E-01     2.210E-01   7.366E-01
 343.00     344.00     3.497E-01  4.151E-01     2.295E-01   7.648E-01
 344.00     345.00     2.467E-01  2.892E-01     1.608E-01   5.359E-01
 345.00     346.00     3.398E-01  3.941E-01     2.202E-01   7.339E-01
 346.00     347.00     3.199E-01  3.663E-01     2.059E-01   6.863E-01
 347.00     348.00     3.144E-01  3.558E-01     2.011E-01   6.703E-01
 348.00     349.00     3.475E-01  3.888E-01     2.209E-01   7.363E-01
 349.00     350.00     2.929E-01  3.239E-01     1.850E-01   6.168E-01
 350.00     351.00     4.123E-01  4.509E-01     2.590E-01   8.632E-01
 351.00     352.00     3.574E-01  3.863E-01     2.231E-01   7.437E-01
 352.00     353.00     3.240E-01  3.464E-01     2.011E-01   6.704E-01
 353.00     354.00     3.921E-01  4.146E-01     2.420E-01   8.067E-01
 354.00     355.00     4.266E-01  4.461E-01     2.618E-01   8.726E-01
 355.00     356.00     4.007E-01  4.145E-01     2.445E-01   8.152E-01
 356.00     357.00     3.737E-01  3.824E-01     2.268E-01   7.562E-01
 357.00     358.00     3.194E-01  3.233E-01     1.928E-01   6.427E-01
 358.00     359.00     2.477E-01  2.481E-01     1.487E-01   4.957E-01
 359.00     360.00     4.189E-01  4.151E-01     2.502E-01   8.340E-01
 360.00     361.00     3.901E-01  3.825E-01     2.318E-01   7.727E-01
 361.00     362.00     3.534E-01  3.429E-01     2.089E-01   6.963E-01
 362.00     363.00     4.169E-01  4.004E-01     2.452E-01   8.173E-01
 363.00     364.00     3.726E-01  3.542E-01     2.180E-01   7.267E-01
 364.00     365.00     4.083E-01  3.842E-01     2.377E-01   7.925E-01
 365.00     366.00     4.997E-01  4.655E-01     2.896E-01   9.652E-01
 366.00     367.00     5.311E-01  4.899E-01     3.063E-01   1.021E+00
 367.00     368.00     5.065E-01  4.626E-01     2.907E-01   9.690E-01
 368.00     369.00     4.468E-01  4.041E-01     2.553E-01   8.509E-01
 369.00     370.00     5.382E-01  4.821E-01     3.061E-01   1.020E+00
 370.00     371.00     4.904E-01  4.349E-01     2.776E-01   9.253E-01
 371.00     372.00     5.634E-01  4.949E-01     3.175E-01   1.058E+00
 372.00     373.00     4.178E-01  3.636E-01     2.344E-01   7.814E-01
 373.00     374.00     3.792E-01  3.269E-01     2.118E-01   7.060E-01
 374.00     375.00     4.178E-01  3.568E-01     2.324E-01   7.746E-01
 375.00     376.00     4.732E-01  4.004E-01     2.621E-01   8.736E-01
 376.00     377.00     4.743E-01  3.977E-01     2.616E-01   8.720E-01
 377.00     378.00     5.670E-01  4.710E-01     3.114E-01   1.038E+00
 378.00     379.00     6.203E-01  5.106E-01     3.393E-01   1.131E+00
 379.00     380.00     4.606E-01  3.758E-01     2.509E-01   8.364E-01
 380.00     381.00     5.559E-01  4.495E-01     3.016E-01   1.005E+00
 381.00     382.00     5.243E-01  4.202E-01     2.833E-01   9.445E-01
 382.00     383.00     3.506E-01  2.785E-01     1.887E-01   6.291E-01
 383.00     384.00     3.089E-01  2.433E-01     1.657E-01   5.522E-01
 384.00     385.00     4.652E-01  3.632E-01     2.485E-01   8.284E-01
 385.00     386.00     4.619E-01  3.575E-01     2.458E-01   8.193E-01
 386.00     387.00     4.724E-01  3.625E-01     2.505E-01   8.349E-01
 387.00     388.00     4.405E-01  3.352E-01     2.327E-01   7.757E-01
 388.00     389.00     4.430E-01  3.343E-01     2.332E-01   7.772E-01
 389.00     390.00     5.604E-01  4.194E-01     2.939E-01   9.798E-01
 390.00     391.00     5.522E-01  4.098E-01     2.886E-01   9.621E-01
 391.00     392.00     6.572E-01  4.837E-01     3.423E-01   1.141E+00
 392.00     393.00     4.944E-01  3.609E-01     2.566E-01   8.553E-01
 393.00     394.00     2.156E-01  1.561E-01     1.115E-01   3.717E-01
 394.00     395.00     5.089E-01  3.656E-01     2.623E-01   8.745E-01
 395.00     396.00     6.568E-01  4.680E-01     3.374E-01   1.125E+00
 396.00     397.00     3.868E-01  2.735E-01     1.981E-01   6.603E-01
 397.00     398.00     4.477E-01  3.140E-01     2.285E-01   7.617E-01
 398.00     399.00     7.716E-01  5.370E-01     3.926E-01   1.309E+00
 399.00     400.00     8.049E-01  5.558E-01     4.082E-01   1.361E+00
 \nWEIGHTED IRRADIANCES (W m-2)
 (with normalized action spectra)\n
   1 UV-B, 280-315 nm                          2.033E+00
   2 UV-B*, 280-320 nm                         3.732E+00
   3 UV-A, 315-400 nm                          6.334E+01
   4 vis+, > 400 nm                            0.000E+00
   5 Gaussian, 305 nm, 10 nm FWHM              8.828E-02
   6 Gaussian, 320 nm, 10 nm FWHM              4.052E-01
   7 Gaussian, 340 nm, 10 nm FWHM              6.774E-01
   8 Gaussian, 380 nm, 10 nm FWHM              8.689E-01
   9 RB Meter, model 501                       5.973E-01
  10 Eppley UV Photometer                      5.546E+01
  11 PAR, 400-700 nm, umol m-2 s-1             0.000E+00
  12 Exponential decay, 14 nm/10               6.909E-01
  13 DNA damage, in vitro (Setlow, 1974)       6.760E-03
  14 SCUP-mice (de Gruijl et al., 1993)        3.971E-01
  15 SCUP-human (de Gruijl and van der Leun,   6.623E-01
  16 Standard human erythema (Webb et al., 20  2.838E-01
  17 UV index (WMO, 1994; Webb et al., 2011)   1.135E+01
  18 Erythema, humans (Anders et al., 1995)    1.293E-03
  19 Occupational TLV (ACGIH, 1992)            7.516E-02
  20 Phytoplankton (Boucher et al., 1994)      5.003E-03
  21 Phytoplankton, phaeo (Cullen et al., 199  1.795E-03
  22 Phytoplankton, proro (Cullen et al., 199  1.700E-03
  23 Cataract, pig (Oriowo et al., 2001)       8.738E-01
  24 Plant damage (Caldwell, 1971)             3.537E-01
  25 Plant damage,Flint&Caldwell,2003,orig.    1.168E+00
  26 Plant damage,Flint&Caldwell,2003,ext390   1.614E+00
  27 Previtamin-D3 (CIE 2006)                  5.647E-01
  28 NMSC (CIE 2006)                           6.304E-01
  29 Ebola virus inactivation                  2.201E+00
