\n INPUT PARAMETERS:\n
 RADIATION SCHEME:            4  streams\n
 w-grid:         111   290.000000       400.000000    
 equally spaced z-grid
 z-grid:          81   2.50000004E-02   80.0000000    
  measurement point: index           1  altitude=   2.50000004E-02
 idate =     20230503  esfact(1) =    1.00000000    
 air temperature: USSA, 1976
 air concentrations: USSA, 1976
 ozone profile: USSA, 1976
 DATAE1/SUN/susim_hi.flx
 DATAE1/SUN/atlas3_1994_317_a.dat        
 DATAE1/SUN/neckel.flx                   
 DATAE1/SUN/sao2010.solref.converted     
 aerosols:  Elterman (1968) continental profile
 solar zenith angle =    48.7000008    
 \n SPECTRAL IRRADIANCE (W m-2 nm-1):\n
 LOWER WVL  UPPER WVL  DIRECT     DIFFUSE DOWN  DIFFUSE UP  TOTAL DOWNWELLING
 290.00     291.00     0.000E+00  0.000E+00     0.000E+00   0.000E+00
 291.00     292.00     3.242E-08  1.357E-07     5.044E-08   1.681E-07
 292.00     293.00     1.455E-07  5.869E-07     2.197E-07   7.325E-07
 293.00     294.00     7.539E-07  2.955E-06     1.113E-06   3.708E-06
 294.00     295.00     2.267E-06  8.698E-06     3.290E-06   1.097E-05
 295.00     296.00     9.246E-06  3.493E-05     1.325E-05   4.418E-05
 296.00     297.00     2.415E-05  9.020E-05     3.430E-05   1.143E-04
 297.00     298.00     6.596E-05  2.442E-04     9.306E-05   3.102E-04
 298.00     299.00     1.062E-04  3.903E-04     1.489E-04   4.964E-04
 299.00     300.00     3.144E-04  1.149E-03     4.391E-04   1.464E-03
 300.00     301.00     3.672E-04  1.334E-03     5.105E-04   1.702E-03
 301.00     302.00     9.233E-04  3.348E-03     1.281E-03   4.271E-03
 302.00     303.00     1.351E-03  4.865E-03     1.865E-03   6.216E-03
 303.00     304.00     2.775E-03  9.973E-03     3.824E-03   1.275E-02
 304.00     305.00     3.405E-03  1.213E-02     4.659E-03   1.553E-02
 305.00     306.00     5.284E-03  1.880E-02     7.227E-03   2.409E-02
 306.00     307.00     5.975E-03  2.101E-02     8.097E-03   2.699E-02
 307.00     308.00     9.859E-03  3.464E-02     1.335E-02   4.450E-02
 308.00     309.00     1.175E-02  4.075E-02     1.575E-02   5.250E-02
 309.00     310.00     1.136E-02  3.921E-02     1.517E-02   5.058E-02
 310.00     311.00     1.661E-02  5.683E-02     2.203E-02   7.344E-02
 311.00     312.00     2.252E-02  7.609E-02     2.958E-02   9.861E-02
 312.00     313.00     2.375E-02  7.990E-02     3.110E-02   1.037E-01
 313.00     314.00     2.780E-02  9.199E-02     3.594E-02   1.198E-01
 314.00     315.00     2.971E-02  9.782E-02     3.826E-02   1.275E-01
 315.00     316.00     3.146E-02  1.018E-01     3.997E-02   1.332E-01
 316.00     317.00     3.306E-02  1.063E-01     4.179E-02   1.393E-01
 317.00     318.00     4.754E-02  1.498E-01     5.919E-02   1.973E-01
 318.00     319.00     3.927E-02  1.229E-01     4.866E-02   1.622E-01
 319.00     320.00     4.899E-02  1.507E-01     5.992E-02   1.997E-01
 320.00     321.00     6.100E-02  1.847E-01     7.370E-02   2.457E-01
 321.00     322.00     5.411E-02  1.629E-01     6.509E-02   2.170E-01
 322.00     323.00     5.414E-02  1.582E-01     6.369E-02   2.123E-01
 323.00     324.00     5.854E-02  1.706E-01     6.875E-02   2.292E-01
 324.00     325.00     6.964E-02  1.991E-01     8.062E-02   2.687E-01
 325.00     326.00     7.888E-02  2.208E-01     8.990E-02   2.997E-01
 326.00     327.00     9.889E-02  2.751E-01     1.122E-01   3.739E-01
 327.00     328.00     9.279E-02  2.524E-01     1.036E-01   3.452E-01
 328.00     329.00     8.690E-02  2.322E-01     9.572E-02   3.191E-01
 329.00     330.00     1.159E-01  3.069E-01     1.268E-01   4.228E-01
 330.00     331.00     1.062E-01  2.752E-01     1.144E-01   3.813E-01
 331.00     332.00     1.062E-01  2.702E-01     1.129E-01   3.764E-01
 332.00     333.00     1.070E-01  2.695E-01     1.129E-01   3.765E-01
 333.00     334.00     1.014E-01  2.503E-01     1.055E-01   3.517E-01
 334.00     335.00     1.150E-01  2.795E-01     1.183E-01   3.945E-01
 335.00     336.00     1.186E-01  2.843E-01     1.209E-01   4.029E-01
 336.00     337.00     9.374E-02  2.208E-01     9.436E-02   3.145E-01
 337.00     338.00     1.038E-01  2.400E-01     1.031E-01   3.438E-01
 338.00     339.00     1.114E-01  2.543E-01     1.097E-01   3.657E-01
 339.00     340.00     1.226E-01  2.755E-01     1.194E-01   3.981E-01
 340.00     341.00     1.324E-01  2.924E-01     1.274E-01   4.248E-01
 341.00     342.00     1.192E-01  2.596E-01     1.136E-01   3.788E-01
 342.00     343.00     1.336E-01  2.865E-01     1.260E-01   4.201E-01
 343.00     344.00     1.402E-01  2.959E-01     1.308E-01   4.361E-01
 344.00     345.00     9.922E-02  2.062E-01     9.162E-02   3.054E-01
 345.00     346.00     1.377E-01  2.823E-01     1.260E-01   4.200E-01
 346.00     347.00     1.300E-01  2.623E-01     1.177E-01   3.923E-01
 347.00     348.00     1.284E-01  2.552E-01     1.151E-01   3.836E-01
 348.00     349.00     1.426E-01  2.795E-01     1.266E-01   4.221E-01
 349.00     350.00     1.207E-01  2.332E-01     1.061E-01   3.538E-01
 350.00     351.00     1.707E-01  3.250E-01     1.487E-01   4.957E-01
 351.00     352.00     1.485E-01  2.788E-01     1.282E-01   4.273E-01
 352.00     353.00     1.352E-01  2.504E-01     1.157E-01   3.856E-01
 353.00     354.00     1.643E-01  3.002E-01     1.394E-01   4.645E-01
 354.00     355.00     1.796E-01  3.236E-01     1.509E-01   5.031E-01
 355.00     356.00     1.693E-01  3.010E-01     1.411E-01   4.704E-01
 356.00     357.00     1.586E-01  2.781E-01     1.310E-01   4.367E-01
 357.00     358.00     1.360E-01  2.354E-01     1.114E-01   3.714E-01
 358.00     359.00     1.059E-01  1.809E-01     8.603E-02   2.868E-01
 359.00     360.00     1.798E-01  3.031E-01     1.448E-01   4.828E-01
 360.00     361.00     1.680E-01  2.797E-01     1.343E-01   4.477E-01
 361.00     362.00     1.528E-01  2.510E-01     1.211E-01   4.038E-01
 362.00     363.00     1.809E-01  2.935E-01     1.423E-01   4.744E-01
 363.00     364.00     1.622E-01  2.599E-01     1.267E-01   4.222E-01
 364.00     365.00     1.784E-01  2.823E-01     1.382E-01   4.607E-01
 365.00     366.00     2.191E-01  3.425E-01     1.685E-01   5.616E-01
 366.00     367.00     2.337E-01  3.608E-01     1.784E-01   5.945E-01
 367.00     368.00     2.236E-01  3.411E-01     1.694E-01   5.647E-01
 368.00     369.00     1.979E-01  2.984E-01     1.489E-01   4.963E-01
 369.00     370.00     2.392E-01  3.563E-01     1.786E-01   5.955E-01
 370.00     371.00     2.186E-01  3.218E-01     1.621E-01   5.405E-01
 371.00     372.00     2.520E-01  3.666E-01     1.856E-01   6.186E-01
 372.00     373.00     1.875E-01  2.697E-01     1.371E-01   4.571E-01
 373.00     374.00     1.707E-01  2.427E-01     1.240E-01   4.133E-01
 374.00     375.00     1.886E-01  2.652E-01     1.361E-01   4.538E-01
 375.00     376.00     2.143E-01  2.979E-01     1.537E-01   5.122E-01
 376.00     377.00     2.154E-01  2.962E-01     1.535E-01   5.116E-01
 377.00     378.00     2.583E-01  3.512E-01     1.828E-01   6.095E-01
 378.00     379.00     2.834E-01  3.811E-01     1.993E-01   6.645E-01
 379.00     380.00     2.110E-01  2.808E-01     1.475E-01   4.918E-01
 380.00     381.00     2.554E-01  3.362E-01     1.775E-01   5.916E-01
 381.00     382.00     2.416E-01  3.146E-01     1.668E-01   5.561E-01
 382.00     383.00     1.620E-01  2.087E-01     1.112E-01   3.707E-01
 383.00     384.00     1.431E-01  1.825E-01     9.769E-02   3.256E-01
 384.00     385.00     2.161E-01  2.727E-01     1.466E-01   4.888E-01
 385.00     386.00     2.151E-01  2.687E-01     1.451E-01   4.838E-01
 386.00     387.00     2.206E-01  2.727E-01     1.480E-01   4.933E-01
 387.00     388.00     2.062E-01  2.524E-01     1.376E-01   4.586E-01
 388.00     389.00     2.079E-01  2.519E-01     1.380E-01   4.599E-01
 389.00     390.00     2.637E-01  3.164E-01     1.740E-01   5.801E-01
 390.00     391.00     2.605E-01  3.095E-01     1.710E-01   5.700E-01
 391.00     392.00     3.108E-01  3.656E-01     2.029E-01   6.765E-01
 392.00     393.00     2.344E-01  2.731E-01     1.522E-01   5.074E-01
 393.00     394.00     1.025E-01  1.182E-01     6.621E-02   2.207E-01
 394.00     395.00     2.424E-01  2.770E-01     1.558E-01   5.195E-01
 395.00     396.00     3.136E-01  3.550E-01     2.006E-01   6.686E-01
 396.00     397.00     1.851E-01  2.076E-01     1.178E-01   3.927E-01
 397.00     398.00     2.148E-01  2.386E-01     1.360E-01   4.534E-01
 398.00     399.00     3.710E-01  4.083E-01     2.338E-01   7.793E-01
 399.00     400.00     3.878E-01  4.230E-01     2.433E-01   8.109E-01
 \nWEIGHTED IRRADIANCES (W m-2)
 (with normalized action spectra)\n
   1 UV-B, 280-315 nm                          7.646E-01
   2 UV-B*, 280-320 nm                         1.596E+00
   3 UV-A, 315-400 nm                          3.643E+01
   4 vis+, > 400 nm                            0.000E+00
   5 Gaussian, 305 nm, 10 nm FWHM              2.966E-02
   6 Gaussian, 320 nm, 10 nm FWHM              2.071E-01
   7 Gaussian, 340 nm, 10 nm FWHM              3.841E-01
   8 Gaussian, 380 nm, 10 nm FWHM              5.110E-01
   9 RB Meter, model 501                       2.134E-01
  10 Eppley UV Photometer                      3.109E+01
  11 PAR, 400-700 nm, umol m-2 s-1             0.000E+00
  12 Exponential decay, 14 nm/10               2.602E-01
  13 DNA damage, in vitro (Setlow, 1974)       1.637E-03
  14 SCUP-mice (de Gruijl et al., 1993)        1.251E-01
  15 SCUP-human (de Gruijl and van der Leun,   2.343E-01
  16 Standard human erythema (Webb et al., 20  9.930E-02
  17 UV index (WMO, 1994; Webb et al., 2011)   3.972E+00
  18 Erythema, humans (Anders et al., 1995)    3.948E-04
  19 Occupational TLV (ACGIH, 1992)            2.297E-02
  20 Phytoplankton (Boucher et al., 1994)      2.020E-03
  21 Phytoplankton, phaeo (Cullen et al., 199  9.118E-04
  22 Phytoplankton, proro (Cullen et al., 199  8.132E-04
  23 Cataract, pig (Oriowo et al., 2001)       3.100E-01
  24 Plant damage (Caldwell, 1971)             9.480E-02
  25 Plant damage,Flint&Caldwell,2003,orig.    5.663E-01
  26 Plant damage,Flint&Caldwell,2003,ext390   8.283E-01
  27 Previtamin-D3 (CIE 2006)                  1.771E-01
  28 NMSC (CIE 2006)                           2.186E-01
  29 Ebola virus inactivation                  5.524E-01
