n INPUT PARAMETERS:\n
 RADIATION SCHEME:            4  streams\n
 w-grid:         111   290.000000       400.000000    
 equally spaced z-grid
 z-grid:          81   2.50000004E-02   80.0000000    
  measurement point: index           1  altitude=   2.50000004E-02
 idate =     20230801  esfact(1) =    1.00000000    
 air temperature: USSA, 1976
 air concentrations: USSA, 1976
 ozone profile: USSA, 1976
 DATAE1/SUN/susim_hi.flx
 DATAE1/SUN/atlas3_1994_317_a.dat        
 DATAE1/SUN/neckel.flx                   
 DATAE1/SUN/sao2010.solref.converted     
 aerosols:  Elterman (1968) continental profile
 solar zenith angle =    50.9000015    
 \n SPECTRAL IRRADIANCE (W m-2 nm-1):\n
 LOWER WVL  UPPER WVL  DIRECT     DIFFUSE DOWN  DIFFUSE UP  TOTAL DOWNWELLING
 290.00     291.00     0.000E+00  0.000E+00     0.000E+00   0.000E+00
 291.00     292.00     1.460E-08  7.817E-08     2.783E-08   9.277E-08
 292.00     293.00     7.067E-08  3.530E-07     1.271E-07   4.237E-07
 293.00     294.00     3.929E-07  1.860E-06     6.759E-07   2.253E-06
 294.00     295.00     1.249E-06  5.693E-06     2.082E-06   6.941E-06
 295.00     296.00     5.402E-06  2.388E-05     8.785E-06   2.928E-05
 296.00     297.00     1.482E-05  6.405E-05     2.366E-05   7.887E-05
 297.00     298.00     4.226E-05  1.795E-04     6.653E-05   2.218E-04
 298.00     299.00     7.054E-05  2.955E-04     1.098E-04   3.661E-04
 299.00     300.00     2.162E-04  8.957E-04     3.336E-04   1.112E-03
 300.00     301.00     2.594E-04  1.063E-03     3.968E-04   1.323E-03
 301.00     302.00     6.711E-04  2.734E-03     1.022E-03   3.405E-03
 302.00     303.00     1.001E-03  4.038E-03     1.512E-03   5.039E-03
 303.00     304.00     2.103E-03  8.441E-03     3.163E-03   1.054E-02
 304.00     305.00     2.615E-03  1.038E-02     3.899E-03   1.300E-02
 305.00     306.00     4.137E-03  1.637E-02     6.154E-03   2.051E-02
 306.00     307.00     4.720E-03  1.843E-02     6.946E-03   2.315E-02
 307.00     308.00     7.914E-03  3.082E-02     1.162E-02   3.874E-02
 308.00     309.00     9.494E-03  3.646E-02     1.379E-02   4.596E-02
 309.00     310.00     9.286E-03  3.542E-02     1.341E-02   4.471E-02
 310.00     311.00     1.368E-02  5.169E-02     1.961E-02   6.537E-02
 311.00     312.00     1.866E-02  6.952E-02     2.645E-02   8.818E-02
 312.00     313.00     1.986E-02  7.360E-02     2.804E-02   9.346E-02
 313.00     314.00     2.331E-02  8.491E-02     3.246E-02   1.082E-01
 314.00     315.00     2.510E-02  9.092E-02     3.481E-02   1.160E-01
 315.00     316.00     2.664E-02  9.473E-02     3.641E-02   1.214E-01
 316.00     317.00     2.817E-02  9.942E-02     3.828E-02   1.276E-01
 317.00     318.00     4.055E-02  1.402E-01     5.422E-02   1.807E-01
 318.00     319.00     3.369E-02  1.156E-01     4.479E-02   1.493E-01
 319.00     320.00     4.211E-02  1.419E-01     5.522E-02   1.841E-01
 320.00     321.00     5.254E-02  1.741E-01     6.799E-02   2.266E-01
 321.00     322.00     4.685E-02  1.542E-01     6.033E-02   2.011E-01
 322.00     323.00     4.676E-02  1.493E-01     5.883E-02   1.961E-01
 323.00     324.00     5.087E-02  1.620E-01     6.385E-02   2.128E-01
 324.00     325.00     6.056E-02  1.890E-01     7.487E-02   2.496E-01
 325.00     326.00     6.860E-02  2.095E-01     8.343E-02   2.781E-01
 326.00     327.00     8.639E-02  2.620E-01     1.045E-01   3.483E-01
 327.00     328.00     8.104E-02  2.402E-01     9.637E-02   3.212E-01
 328.00     329.00     7.596E-02  2.210E-01     8.908E-02   2.969E-01
 329.00     330.00     1.016E-01  2.929E-01     1.184E-01   3.946E-01
 330.00     331.00     9.308E-02  2.624E-01     1.066E-01   3.555E-01
 331.00     332.00     9.315E-02  2.577E-01     1.052E-01   3.508E-01
 332.00     333.00     9.414E-02  2.575E-01     1.055E-01   3.516E-01
 333.00     334.00     8.922E-02  2.391E-01     9.848E-02   3.283E-01
 334.00     335.00     1.013E-01  2.671E-01     1.105E-01   3.684E-01
 335.00     336.00     1.046E-01  2.720E-01     1.130E-01   3.766E-01
 336.00     337.00     8.272E-02  2.112E-01     8.818E-02   2.939E-01
 337.00     338.00     9.162E-02  2.295E-01     9.633E-02   3.211E-01
 338.00     339.00     9.850E-02  2.434E-01     1.026E-01   3.419E-01
 339.00     340.00     1.085E-01  2.638E-01     1.117E-01   3.723E-01
 340.00     341.00     1.172E-01  2.800E-01     1.191E-01   3.971E-01
 341.00     342.00     1.056E-01  2.487E-01     1.063E-01   3.544E-01
 342.00     343.00     1.185E-01  2.746E-01     1.179E-01   3.931E-01
 343.00     344.00     1.244E-01  2.836E-01     1.224E-01   4.080E-01
 344.00     345.00     8.808E-02  1.976E-01     8.570E-02   2.857E-01
 345.00     346.00     1.224E-01  2.707E-01     1.179E-01   3.931E-01
 346.00     347.00     1.156E-01  2.515E-01     1.101E-01   3.671E-01
 347.00     348.00     1.142E-01  2.448E-01     1.077E-01   3.590E-01
 348.00     349.00     1.269E-01  2.682E-01     1.185E-01   3.951E-01
 349.00     350.00     1.075E-01  2.237E-01     9.937E-02   3.312E-01
 350.00     351.00     1.521E-01  3.120E-01     1.392E-01   4.641E-01
 351.00     352.00     1.324E-01  2.676E-01     1.200E-01   4.001E-01
 352.00     353.00     1.207E-01  2.404E-01     1.083E-01   3.611E-01
 353.00     354.00     1.467E-01  2.883E-01     1.305E-01   4.350E-01
 354.00     355.00     1.604E-01  3.108E-01     1.414E-01   4.712E-01
 355.00     356.00     1.514E-01  2.892E-01     1.322E-01   4.406E-01
 356.00     357.00     1.418E-01  2.672E-01     1.227E-01   4.091E-01
 357.00     358.00     1.217E-01  2.262E-01     1.044E-01   3.480E-01
 358.00     359.00     9.483E-02  1.739E-01     8.061E-02   2.687E-01
 359.00     360.00     1.611E-01  2.914E-01     1.357E-01   4.524E-01
 360.00     361.00     1.506E-01  2.689E-01     1.259E-01   4.195E-01
 361.00     362.00     1.370E-01  2.414E-01     1.135E-01   3.785E-01
 362.00     363.00     1.623E-01  2.823E-01     1.334E-01   4.447E-01
 363.00     364.00     1.457E-01  2.501E-01     1.187E-01   3.957E-01
 364.00     365.00     1.602E-01  2.716E-01     1.296E-01   4.319E-01
 365.00     366.00     1.969E-01  3.296E-01     1.579E-01   5.265E-01
 366.00     367.00     2.101E-01  3.473E-01     1.672E-01   5.574E-01
 367.00     368.00     2.011E-01  3.284E-01     1.589E-01   5.295E-01
 368.00     369.00     1.781E-01  2.872E-01     1.396E-01   4.654E-01
 369.00     370.00     2.154E-01  3.431E-01     1.675E-01   5.585E-01
 370.00     371.00     1.969E-01  3.100E-01     1.521E-01   5.069E-01
 371.00     372.00     2.271E-01  3.532E-01     1.741E-01   5.802E-01
 372.00     373.00     1.690E-01  2.598E-01     1.286E-01   4.288E-01
 373.00     374.00     1.539E-01  2.338E-01     1.163E-01   3.877E-01
 374.00     375.00     1.702E-01  2.555E-01     1.277E-01   4.257E-01
 375.00     376.00     1.934E-01  2.871E-01     1.442E-01   4.806E-01
 376.00     377.00     1.946E-01  2.855E-01     1.440E-01   4.801E-01
 377.00     378.00     2.334E-01  3.386E-01     1.716E-01   5.719E-01
 378.00     379.00     2.561E-01  3.675E-01     1.871E-01   6.236E-01
 379.00     380.00     1.908E-01  2.707E-01     1.385E-01   4.616E-01
 380.00     381.00     2.311E-01  3.243E-01     1.666E-01   5.553E-01
 381.00     382.00     2.186E-01  3.034E-01     1.566E-01   5.220E-01
 382.00     383.00     1.467E-01  2.014E-01     1.044E-01   3.480E-01
 383.00     384.00     1.296E-01  1.761E-01     9.171E-02   3.057E-01
 384.00     385.00     1.958E-01  2.632E-01     1.377E-01   4.590E-01
 385.00     386.00     1.950E-01  2.593E-01     1.363E-01   4.543E-01
 386.00     387.00     2.000E-01  2.632E-01     1.390E-01   4.633E-01
 387.00     388.00     1.871E-01  2.437E-01     1.292E-01   4.307E-01
 388.00     389.00     1.887E-01  2.432E-01     1.296E-01   4.319E-01
 389.00     390.00     2.394E-01  3.055E-01     1.635E-01   5.449E-01
 390.00     391.00     2.366E-01  2.989E-01     1.606E-01   5.354E-01
 391.00     392.00     2.824E-01  3.531E-01     1.906E-01   6.355E-01
 392.00     393.00     2.130E-01  2.637E-01     1.430E-01   4.767E-01
 393.00     394.00     9.315E-02  1.142E-01     6.220E-02   2.073E-01
 394.00     395.00     2.205E-01  2.677E-01     1.464E-01   4.881E-01
 395.00     396.00     2.853E-01  3.430E-01     1.885E-01   6.283E-01
 396.00     397.00     1.685E-01  2.006E-01     1.107E-01   3.691E-01
 397.00     398.00     1.955E-01  2.306E-01     1.278E-01   4.261E-01
 398.00     399.00     3.378E-01  3.947E-01     2.197E-01   7.325E-01
 399.00     400.00     3.533E-01  4.089E-01     2.287E-01   7.622E-01
 \nWEIGHTED IRRADIANCES (W m-2)
 (with normalized action spectra)\n
   1 UV-B, 280-315 nm                          6.794E-01
   2 UV-B*, 280-320 nm                         1.442E+00
   3 UV-A, 315-400 nm                          3.411E+01
   4 vis+, > 400 nm                            0.000E+00
   5 Gaussian, 305 nm, 10 nm FWHM              2.598E-02
   6 Gaussian, 320 nm, 10 nm FWHM              1.912E-01
   7 Gaussian, 340 nm, 10 nm FWHM              3.592E-01
   8 Gaussian, 380 nm, 10 nm FWHM              4.796E-01
   9 RB Meter, model 501                       1.892E-01
  10 Eppley UV Photometer                      2.903E+01
  11 PAR, 400-700 nm, umol m-2 s-1             0.000E+00
  12 Exponential decay, 14 nm/10               2.327E-01
  13 DNA damage, in vitro (Setlow, 1974)       1.394E-03
  14 SCUP-mice (de Gruijl et al., 1993)        1.095E-01
  15 SCUP-human (de Gruijl and van der Leun,   2.076E-01
  16 Standard human erythema (Webb et al., 20  8.823E-02
  17 UV index (WMO, 1994; Webb et al., 2011)   3.529E+00
  18 Erythema, humans (Anders et al., 1995)    3.441E-04
  19 Occupational TLV (ACGIH, 1992)            2.015E-02
  20 Phytoplankton (Boucher et al., 1994)      1.822E-03
  21 Phytoplankton, phaeo (Cullen et al., 199  8.434E-04
  22 Phytoplankton, proro (Cullen et al., 199  7.476E-04
  23 Cataract, pig (Oriowo et al., 2001)       2.746E-01
  24 Plant damage (Caldwell, 1971)             8.089E-02
  25 Plant damage,Flint&Caldwell,2003,orig.    5.222E-01
  26 Plant damage,Flint&Caldwell,2003,ext390   7.681E-01
  27 Previtamin-D3 (CIE 2006)                  1.542E-01
  28 NMSC (CIE 2006)                           1.933E-01
  29 Ebola virus inactivation                  4.698E-01
