\n INPUT PARAMETERS:\n
 RADIATION SCHEME:            4  streams\n
 w-grid:         111   290.000000       400.000000    
 equally spaced z-grid
 z-grid:          81   2.50000004E-02   80.0000000    
  measurement point: index           1  altitude=   2.50000004E-02
 idate =     20230515  esfact(1) =    1.00000000    
 air temperature: USSA, 1976
 air concentrations: USSA, 1976
 ozone profile: USSA, 1976
 DATAE1/SUN/susim_hi.flx
 DATAE1/SUN/atlas3_1994_317_a.dat        
 DATAE1/SUN/neckel.flx                   
 DATAE1/SUN/sao2010.solref.converted     
 aerosols:  Elterman (1968) continental profile
 solar zenith angle =    51.9000015    
 \n SPECTRAL IRRADIANCE (W m-2 nm-1):\n
 LOWER WVL  UPPER WVL  DIRECT     DIFFUSE DOWN  DIFFUSE UP  TOTAL DOWNWELLING
 290.00     291.00     0.000E+00  0.000E+00     0.000E+00   0.000E+00
 291.00     292.00     9.834E-09  6.047E-08     2.109E-08   7.031E-08
 292.00     293.00     4.939E-08  2.776E-07     9.810E-08   3.270E-07
 293.00     294.00     2.844E-07  1.491E-06     5.326E-07   1.775E-06
 294.00     295.00     9.292E-07  4.641E-06     1.671E-06   5.571E-06
 295.00     296.00     4.139E-06  1.986E-05     7.200E-06   2.400E-05
 296.00     297.00     1.163E-05  5.422E-05     1.976E-05   6.586E-05
 297.00     298.00     3.390E-05  1.545E-04     5.651E-05   1.884E-04
 298.00     299.00     5.762E-05  2.580E-04     9.467E-05   3.156E-04
 299.00     300.00     1.796E-04  7.928E-04     2.917E-04   9.724E-04
 300.00     301.00     2.184E-04  9.514E-04     3.509E-04   1.170E-03
 301.00     302.00     5.731E-04  2.475E-03     9.146E-04   3.049E-03
 302.00     303.00     8.632E-04  3.686E-03     1.365E-03   4.549E-03
 303.00     304.00     1.834E-03  7.778E-03     2.884E-03   9.612E-03
 304.00     305.00     2.295E-03  9.619E-03     3.574E-03   1.191E-02
 305.00     306.00     3.666E-03  1.530E-02     5.690E-03   1.897E-02
 306.00     307.00     4.201E-03  1.729E-02     6.447E-03   2.149E-02
 307.00     308.00     7.100E-03  2.911E-02     1.086E-02   3.621E-02
 308.00     309.00     8.546E-03  3.453E-02     1.292E-02   4.308E-02
 309.00     310.00     8.405E-03  3.370E-02     1.263E-02   4.211E-02
 310.00     311.00     1.243E-02  4.934E-02     1.853E-02   6.177E-02
 311.00     312.00     1.700E-02  6.652E-02     2.506E-02   8.352E-02
 312.00     313.00     1.818E-02  7.070E-02     2.666E-02   8.888E-02
 313.00     314.00     2.137E-02  8.164E-02     3.090E-02   1.030E-01
 314.00     315.00     2.310E-02  8.772E-02     3.325E-02   1.108E-01
 315.00     316.00     2.454E-02  9.146E-02     3.480E-02   1.160E-01
 316.00     317.00     2.604E-02  9.624E-02     3.668E-02   1.223E-01
 317.00     318.00     3.750E-02  1.357E-01     5.196E-02   1.732E-01
 318.00     319.00     3.125E-02  1.122E-01     4.303E-02   1.434E-01
 319.00     320.00     3.909E-02  1.378E-01     5.308E-02   1.769E-01
 320.00     321.00     4.882E-02  1.692E-01     6.539E-02   2.180E-01
 321.00     322.00     4.364E-02  1.502E-01     5.815E-02   1.938E-01
 322.00     323.00     4.351E-02  1.452E-01     5.662E-02   1.887E-01
 323.00     324.00     4.747E-02  1.579E-01     6.161E-02   2.054E-01
 324.00     325.00     5.654E-02  1.843E-01     7.224E-02   2.408E-01
 325.00     326.00     6.405E-02  2.042E-01     8.048E-02   2.683E-01
 326.00     327.00     8.083E-02  2.558E-01     1.010E-01   3.366E-01
 327.00     328.00     7.582E-02  2.345E-01     9.308E-02   3.103E-01
 328.00     329.00     7.109E-02  2.157E-01     8.604E-02   2.868E-01
 329.00     330.00     9.528E-02  2.864E-01     1.145E-01   3.816E-01
 330.00     331.00     8.725E-02  2.564E-01     1.031E-01   3.437E-01
 331.00     332.00     8.735E-02  2.518E-01     1.017E-01   3.391E-01
 332.00     333.00     8.838E-02  2.519E-01     1.021E-01   3.402E-01
 333.00     334.00     8.376E-02  2.338E-01     9.526E-02   3.175E-01
 334.00     335.00     9.516E-02  2.612E-01     1.069E-01   3.564E-01
 335.00     336.00     9.836E-02  2.662E-01     1.094E-01   3.645E-01
 336.00     337.00     7.779E-02  2.067E-01     8.535E-02   2.845E-01
 337.00     338.00     8.616E-02  2.245E-01     9.321E-02   3.107E-01
 338.00     339.00     9.271E-02  2.383E-01     9.930E-02   3.310E-01
 339.00     340.00     1.022E-01  2.583E-01     1.081E-01   3.605E-01
 340.00     341.00     1.104E-01  2.741E-01     1.153E-01   3.844E-01
 341.00     342.00     9.954E-02  2.436E-01     1.029E-01   3.431E-01
 342.00     343.00     1.117E-01  2.690E-01     1.142E-01   3.807E-01
 343.00     344.00     1.173E-01  2.778E-01     1.185E-01   3.951E-01
 344.00     345.00     8.307E-02  1.936E-01     8.299E-02   2.766E-01
 345.00     346.00     1.155E-01  2.653E-01     1.142E-01   3.808E-01
 346.00     347.00     1.091E-01  2.465E-01     1.067E-01   3.555E-01
 347.00     348.00     1.078E-01  2.399E-01     1.043E-01   3.477E-01
 348.00     349.00     1.199E-01  2.628E-01     1.148E-01   3.827E-01
 349.00     350.00     1.016E-01  2.193E-01     9.625E-02   3.208E-01
 350.00     351.00     1.437E-01  3.058E-01     1.349E-01   4.496E-01
 351.00     352.00     1.252E-01  2.624E-01     1.163E-01   3.875E-01
 352.00     353.00     1.141E-01  2.357E-01     1.049E-01   3.498E-01
 353.00     354.00     1.388E-01  2.827E-01     1.264E-01   4.215E-01
 354.00     355.00     1.518E-01  3.048E-01     1.370E-01   4.566E-01
 355.00     356.00     1.433E-01  2.836E-01     1.281E-01   4.269E-01
 356.00     357.00     1.343E-01  2.621E-01     1.189E-01   3.964E-01
 357.00     358.00     1.153E-01  2.219E-01     1.012E-01   3.372E-01
 358.00     359.00     8.983E-02  1.706E-01     7.811E-02   2.604E-01
 359.00     360.00     1.526E-01  2.858E-01     1.315E-01   4.384E-01
 360.00     361.00     1.428E-01  2.638E-01     1.220E-01   4.066E-01
 361.00     362.00     1.299E-01  2.369E-01     1.100E-01   3.668E-01
 362.00     363.00     1.539E-01  2.770E-01     1.293E-01   4.310E-01
 363.00     364.00     1.382E-01  2.454E-01     1.151E-01   3.836E-01
 364.00     365.00     1.520E-01  2.666E-01     1.256E-01   4.186E-01
 365.00     366.00     1.868E-01  3.235E-01     1.531E-01   5.103E-01
 366.00     367.00     1.994E-01  3.409E-01     1.621E-01   5.404E-01
 367.00     368.00     1.910E-01  3.223E-01     1.540E-01   5.133E-01
 368.00     369.00     1.692E-01  2.820E-01     1.353E-01   4.511E-01
 369.00     370.00     2.046E-01  3.368E-01     1.624E-01   5.414E-01
 370.00     371.00     1.871E-01  3.043E-01     1.474E-01   4.914E-01
 371.00     372.00     2.158E-01  3.468E-01     1.688E-01   5.626E-01
 372.00     373.00     1.607E-01  2.551E-01     1.247E-01   4.157E-01
 373.00     374.00     1.463E-01  2.296E-01     1.128E-01   3.760E-01
 374.00     375.00     1.618E-01  2.510E-01     1.238E-01   4.128E-01
 375.00     376.00     1.840E-01  2.820E-01     1.398E-01   4.660E-01
 376.00     377.00     1.851E-01  2.804E-01     1.397E-01   4.655E-01
 377.00     378.00     2.220E-01  3.326E-01     1.664E-01   5.546E-01
 378.00     379.00     2.438E-01  3.610E-01     1.814E-01   6.048E-01
 379.00     380.00     1.816E-01  2.660E-01     1.343E-01   4.476E-01
 380.00     381.00     2.200E-01  3.186E-01     1.616E-01   5.386E-01
 381.00     382.00     2.082E-01  2.981E-01     1.519E-01   5.063E-01
 382.00     383.00     1.397E-01  1.979E-01     1.013E-01   3.375E-01
 383.00     384.00     1.235E-01  1.730E-01     8.896E-02   2.965E-01
 384.00     385.00     1.866E-01  2.586E-01     1.336E-01   4.452E-01
 385.00     386.00     1.858E-01  2.548E-01     1.322E-01   4.407E-01
 386.00     387.00     1.907E-01  2.587E-01     1.348E-01   4.494E-01
 387.00     388.00     1.783E-01  2.395E-01     1.254E-01   4.178E-01
 388.00     389.00     1.799E-01  2.391E-01     1.257E-01   4.190E-01
 389.00     390.00     2.283E-01  3.003E-01     1.586E-01   5.286E-01
 390.00     391.00     2.257E-01  2.938E-01     1.558E-01   5.195E-01
 391.00     392.00     2.694E-01  3.472E-01     1.850E-01   6.166E-01
 392.00     393.00     2.032E-01  2.593E-01     1.388E-01   4.626E-01
 393.00     394.00     8.890E-02  1.123E-01     6.036E-02   2.012E-01
 394.00     395.00     2.104E-01  2.632E-01     1.421E-01   4.736E-01
 395.00     396.00     2.723E-01  3.373E-01     1.829E-01   6.097E-01
 396.00     397.00     1.609E-01  1.973E-01     1.074E-01   3.582E-01
 397.00     398.00     1.867E-01  2.268E-01     1.240E-01   4.135E-01
 398.00     399.00     3.226E-01  3.882E-01     2.132E-01   7.108E-01
 399.00     400.00     3.375E-01  4.022E-01     2.219E-01   7.397E-01
 \nWEIGHTED IRRADIANCES (W m-2)
 (with normalized action spectra)\n
   1 UV-B, 280-315 nm                          6.417E-01
   2 UV-B*, 280-320 nm                         1.374E+00
   3 UV-A, 315-400 nm                          3.305E+01
   4 vis+, > 400 nm                            0.000E+00
   5 Gaussian, 305 nm, 10 nm FWHM              2.436E-02
   6 Gaussian, 320 nm, 10 nm FWHM              1.839E-01
   7 Gaussian, 340 nm, 10 nm FWHM              3.477E-01
   8 Gaussian, 380 nm, 10 nm FWHM              4.652E-01
   9 RB Meter, model 501                       1.786E-01
  10 Eppley UV Photometer                      2.808E+01
  11 PAR, 400-700 nm, umol m-2 s-1             0.000E+00
  12 Exponential decay, 14 nm/10               2.205E-01
  13 DNA damage, in vitro (Setlow, 1974)       1.290E-03
  14 SCUP-mice (de Gruijl et al., 1993)        1.027E-01
  15 SCUP-human (de Gruijl and van der Leun,   1.959E-01
  16 Standard human erythema (Webb et al., 20  8.337E-02
  17 UV index (WMO, 1994; Webb et al., 2011)   3.335E+00
  18 Erythema, humans (Anders et al., 1995)    3.222E-04
  19 Occupational TLV (ACGIH, 1992)            1.893E-02
  20 Phytoplankton (Boucher et al., 1994)      1.734E-03
  21 Phytoplankton, phaeo (Cullen et al., 199  8.123E-04
  22 Phytoplankton, proro (Cullen et al., 199  7.180E-04
  23 Cataract, pig (Oriowo et al., 2001)       2.591E-01
  24 Plant damage (Caldwell, 1971)             7.492E-02
  25 Plant damage,Flint&Caldwell,2003,orig.    5.023E-01
  26 Plant damage,Flint&Caldwell,2003,ext390   7.408E-01
  27 Previtamin-D3 (CIE 2006)                  1.442E-01
  28 NMSC (CIE 2006)                           1.822E-01
  29 Ebola virus inactivation                  4.346E-01
