\n INPUT PARAMETERS:\n
 RADIATION SCHEME:            4  streams\n
 w-grid:         111   290.000000       400.000000    
 equally spaced z-grid
 z-grid:          81   2.50000004E-02   80.0000000    
  measurement point: index           1  altitude=   2.50000004E-02
 idate =     20230215  esfact(1) =    1.00000000    
 air temperature: USSA, 1976
 air concentrations: USSA, 1976
 ozone profile: USSA, 1976
 DATAE1/SUN/susim_hi.flx
 DATAE1/SUN/atlas3_1994_317_a.dat        
 DATAE1/SUN/neckel.flx                   
 DATAE1/SUN/sao2010.solref.converted     
 aerosols:  Elterman (1968) continental profile
 solar zenith angle =    20.3999996    
 \n SPECTRAL IRRADIANCE (W m-2 nm-1):\n
 LOWER WVL  UPPER WVL  DIRECT     DIFFUSE DOWN  DIFFUSE UP  TOTAL DOWNWELLING
 290.00     291.00     0.000E+00  0.000E+00     0.000E+00   0.000E+00
 291.00     292.00     5.687E-06  8.414E-06     4.230E-06   1.410E-05
 292.00     293.00     1.578E-05  2.388E-05     1.190E-05   3.966E-05
 293.00     294.00     5.197E-05  8.049E-05     3.974E-05   1.325E-04
 294.00     295.00     1.095E-04  1.727E-04     8.464E-05   2.821E-04
 295.00     296.00     3.062E-04  4.938E-04     2.400E-04   8.000E-04
 296.00     297.00     5.839E-04  9.604E-04     4.633E-04   1.544E-03
 297.00     298.00     1.210E-03  2.025E-03     9.705E-04   3.235E-03
 298.00     299.00     1.542E-03  2.618E-03     1.248E-03   4.159E-03
 299.00     300.00     3.661E-03  6.304E-03     2.990E-03   9.965E-03
 300.00     301.00     3.606E-03  6.270E-03     2.963E-03   9.876E-03
 301.00     302.00     7.543E-03  1.329E-02     6.250E-03   2.083E-02
 302.00     303.00     9.761E-03  1.728E-02     8.113E-03   2.704E-02
 303.00     304.00     1.737E-02  3.106E-02     1.453E-02   4.843E-02
 304.00     305.00     1.956E-02  3.498E-02     1.636E-02   5.454E-02
 305.00     306.00     2.682E-02  4.841E-02     2.257E-02   7.523E-02
 306.00     307.00     2.863E-02  5.147E-02     2.403E-02   8.010E-02
 307.00     308.00     4.264E-02  7.718E-02     3.594E-02   1.198E-01
 308.00     309.00     4.863E-02  8.747E-02     4.083E-02   1.361E-01
 309.00     310.00     4.388E-02  7.901E-02     3.687E-02   1.229E-01
 310.00     311.00     6.092E-02  1.094E-01     5.110E-02   1.703E-01
 311.00     312.00     7.967E-02  1.420E-01     6.651E-02   2.217E-01
 312.00     313.00     7.924E-02  1.414E-01     6.620E-02   2.207E-01
 313.00     314.00     9.100E-02  1.605E-01     7.546E-02   2.515E-01
 314.00     315.00     9.246E-02  1.631E-01     7.666E-02   2.555E-01
 315.00     316.00     9.656E-02  1.682E-01     7.942E-02   2.647E-01
 316.00     317.00     9.751E-02  1.694E-01     8.007E-02   2.669E-01
 317.00     318.00     1.393E-01  2.383E-01     1.133E-01   3.776E-01
 318.00     319.00     1.109E-01  1.893E-01     9.006E-02   3.002E-01
 319.00     320.00     1.367E-01  2.304E-01     1.101E-01   3.671E-01
 320.00     321.00     1.681E-01  2.797E-01     1.343E-01   4.478E-01
 321.00     322.00     1.442E-01  2.395E-01     1.151E-01   3.837E-01
 322.00     323.00     1.465E-01  2.372E-01     1.151E-01   3.836E-01
 323.00     324.00     1.524E-01  2.469E-01     1.198E-01   3.993E-01
 324.00     325.00     1.804E-01  2.880E-01     1.405E-01   4.685E-01
 325.00     326.00     2.041E-01  3.203E-01     1.573E-01   5.244E-01
 326.00     327.00     2.489E-01  3.894E-01     1.915E-01   6.383E-01
 327.00     328.00     2.340E-01  3.594E-01     1.780E-01   5.934E-01
 328.00     329.00     2.179E-01  3.299E-01     1.643E-01   5.478E-01
 329.00     330.00     2.844E-01  4.282E-01     2.138E-01   7.126E-01
 330.00     331.00     2.609E-01  3.860E-01     1.941E-01   6.469E-01
 331.00     332.00     2.600E-01  3.790E-01     1.917E-01   6.389E-01
 332.00     333.00     2.577E-01  3.728E-01     1.892E-01   6.305E-01
 333.00     334.00     2.443E-01  3.476E-01     1.775E-01   5.918E-01
 334.00     335.00     2.749E-01  3.864E-01     1.984E-01   6.614E-01
 335.00     336.00     2.806E-01  3.903E-01     2.013E-01   6.709E-01
 336.00     337.00     2.211E-01  3.032E-01     1.573E-01   5.242E-01
 337.00     338.00     2.446E-01  3.304E-01     1.725E-01   5.750E-01
 338.00     339.00     2.598E-01  3.474E-01     1.822E-01   6.073E-01
 339.00     340.00     2.845E-01  3.756E-01     1.980E-01   6.601E-01
 340.00     341.00     3.064E-01  3.989E-01     2.116E-01   7.053E-01
 341.00     342.00     2.739E-01  3.526E-01     1.880E-01   6.265E-01
 342.00     343.00     3.054E-01  3.884E-01     2.082E-01   6.939E-01
 343.00     344.00     3.195E-01  4.010E-01     2.161E-01   7.204E-01
 344.00     345.00     2.254E-01  2.793E-01     1.514E-01   5.048E-01
 345.00     346.00     3.107E-01  3.809E-01     2.075E-01   6.916E-01
 346.00     347.00     2.926E-01  3.540E-01     1.940E-01   6.466E-01
 347.00     348.00     2.877E-01  3.440E-01     1.895E-01   6.316E-01
 348.00     349.00     3.181E-01  3.759E-01     2.082E-01   6.940E-01
 349.00     350.00     2.682E-01  3.132E-01     1.744E-01   5.814E-01
 350.00     351.00     3.777E-01  4.361E-01     2.441E-01   8.138E-01
 351.00     352.00     3.275E-01  3.736E-01     2.103E-01   7.011E-01
 352.00     353.00     2.971E-01  3.351E-01     1.896E-01   6.321E-01
 353.00     354.00     3.596E-01  4.011E-01     2.282E-01   7.607E-01
 354.00     355.00     3.914E-01  4.317E-01     2.469E-01   8.230E-01
 355.00     356.00     3.678E-01  4.011E-01     2.307E-01   7.689E-01
 356.00     357.00     3.432E-01  3.701E-01     2.140E-01   7.133E-01
 357.00     358.00     2.934E-01  3.130E-01     1.819E-01   6.063E-01
 358.00     359.00     2.276E-01  2.402E-01     1.403E-01   4.677E-01
 359.00     360.00     3.850E-01  4.019E-01     2.361E-01   7.869E-01
 360.00     361.00     3.587E-01  3.705E-01     2.187E-01   7.292E-01
 361.00     362.00     3.250E-01  3.321E-01     1.971E-01   6.572E-01
 362.00     363.00     3.836E-01  3.879E-01     2.314E-01   7.714E-01
 363.00     364.00     3.429E-01  3.431E-01     2.058E-01   6.860E-01
 364.00     365.00     3.759E-01  3.723E-01     2.244E-01   7.481E-01
 365.00     366.00     4.602E-01  4.511E-01     2.734E-01   9.113E-01
 366.00     367.00     4.893E-01  4.748E-01     2.892E-01   9.641E-01
 367.00     368.00     4.667E-01  4.483E-01     2.745E-01   9.151E-01
 368.00     369.00     4.119E-01  3.917E-01     2.411E-01   8.036E-01
 369.00     370.00     4.963E-01  4.673E-01     2.891E-01   9.636E-01
 370.00     371.00     4.523E-01  4.217E-01     2.622E-01   8.740E-01
 371.00     372.00     5.198E-01  4.799E-01     2.999E-01   9.997E-01
 372.00     373.00     3.856E-01  3.526E-01     2.215E-01   7.382E-01
 373.00     374.00     3.500E-01  3.170E-01     2.001E-01   6.670E-01
 374.00     375.00     3.858E-01  3.461E-01     2.196E-01   7.319E-01
 375.00     376.00     4.371E-01  3.884E-01     2.476E-01   8.255E-01
 376.00     377.00     4.382E-01  3.858E-01     2.472E-01   8.241E-01
 377.00     378.00     5.240E-01  4.570E-01     2.943E-01   9.810E-01
 378.00     379.00     5.734E-01  4.955E-01     3.207E-01   1.069E+00
 379.00     380.00     4.259E-01  3.647E-01     2.372E-01   7.906E-01
 380.00     381.00     5.142E-01  4.363E-01     2.851E-01   9.505E-01
 381.00     382.00     4.850E-01  4.079E-01     2.679E-01   8.929E-01
 382.00     383.00     3.244E-01  2.704E-01     1.784E-01   5.948E-01
 383.00     384.00     2.859E-01  2.362E-01     1.566E-01   5.221E-01
 384.00     385.00     4.307E-01  3.527E-01     2.350E-01   7.834E-01
 385.00     386.00     4.277E-01  3.471E-01     2.324E-01   7.748E-01
 386.00     387.00     4.375E-01  3.521E-01     2.369E-01   7.896E-01
 387.00     388.00     4.081E-01  3.255E-01     2.201E-01   7.336E-01
 388.00     389.00     4.105E-01  3.247E-01     2.205E-01   7.352E-01
 389.00     390.00     5.195E-01  4.074E-01     2.781E-01   9.269E-01
 390.00     391.00     5.120E-01  3.982E-01     2.730E-01   9.102E-01
 391.00     392.00     6.095E-01  4.700E-01     3.238E-01   1.079E+00
 392.00     393.00     4.586E-01  3.507E-01     2.428E-01   8.093E-01
 393.00     394.00     2.000E-01  1.517E-01     1.055E-01   3.518E-01
 394.00     395.00     4.722E-01  3.553E-01     2.483E-01   8.275E-01
 395.00     396.00     6.096E-01  4.549E-01     3.193E-01   1.064E+00
 396.00     397.00     3.591E-01  2.658E-01     1.875E-01   6.249E-01
 397.00     398.00     4.157E-01  3.053E-01     2.163E-01   7.210E-01
 398.00     399.00     7.166E-01  5.221E-01     3.716E-01   1.239E+00
 399.00     400.00     7.476E-01  5.404E-01     3.864E-01   1.288E+00
 \nWEIGHTED IRRADIANCES (W m-2)
 (with normalized action spectra)\n
   1 UV-B, 280-315 nm                          1.835E+00
   2 UV-B*, 280-320 nm                         3.411E+00
   3 UV-A, 315-400 nm                          5.972E+01
   4 vis+, > 400 nm                            0.000E+00
   5 Gaussian, 305 nm, 10 nm FWHM              7.882E-02
   6 Gaussian, 320 nm, 10 nm FWHM              3.775E-01
   7 Gaussian, 340 nm, 10 nm FWHM              6.377E-01
   8 Gaussian, 380 nm, 10 nm FWHM              8.214E-01
   9 RB Meter, model 501                       5.347E-01
  10 Eppley UV Photometer                      5.215E+01
  11 PAR, 400-700 nm, umol m-2 s-1             0.000E+00
  12 Exponential decay, 14 nm/10               6.207E-01
  13 DNA damage, in vitro (Setlow, 1974)       5.785E-03
  14 SCUP-mice (de Gruijl et al., 1993)        3.504E-01
  15 SCUP-human (de Gruijl and van der Leun,   5.923E-01
  16 Standard human erythema (Webb et al., 20  2.527E-01
  17 UV index (WMO, 1994; Webb et al., 2011)   1.011E+01
  18 Erythema, humans (Anders et al., 1995)    1.138E-03
  19 Occupational TLV (ACGIH, 1992)            6.585E-02
  20 Phytoplankton (Boucher et al., 1994)      4.528E-03
  21 Phytoplankton, phaeo (Cullen et al., 199  1.667E-03
  22 Phytoplankton, proro (Cullen et al., 199  1.568E-03
  23 Cataract, pig (Oriowo et al., 2001)       7.815E-01
  24 Plant damage (Caldwell, 1971)             3.080E-01
  25 Plant damage,Flint&Caldwell,2003,orig.    1.077E+00
  26 Plant damage,Flint&Caldwell,2003,ext390   1.499E+00
  27 Previtamin-D3 (CIE 2006)                  4.996E-01
  28 NMSC (CIE 2006)                           5.624E-01
  29 Ebola virus inactivation                  1.897E+00
