

 \n INPUT PARAMETERS:\n
 RADIATION SCHEME:            4  streams\n
 w-grid:         111   290.000000       400.000000    
 equally spaced z-grid
 z-grid:          81   2.50000004E-02   80.0000000    
  measurement point: index           1  altitude=   2.50000004E-02
 idate =     20230710  esfact(1) =    1.00000000    
 air temperature: USSA, 1976
 air concentrations: USSA, 1976
 ozone profile: USSA, 1976
 DATAE1/SUN/susim_hi.flx
 DATAE1/SUN/atlas3_1994_317_a.dat        
 DATAE1/SUN/neckel.flx                   
 DATAE1/SUN/sao2010.solref.converted     
 aerosols:  Elterman (1968) continental profile
 solar zenith angle =    34.7999992    
 \n SPECTRAL IRRADIANCE (W m-2 nm-1):\n
 LOWER WVL  UPPER WVL  DIRECT     DIFFUSE DOWN  DIFFUSE UP  TOTAL DOWNWELLING
 290.00     291.00     0.000E+00  0.000E+00     0.000E+00   0.000E+00
 291.00     292.00     9.792E-07  1.830E-06     2.809E-07   2.809E-06
 292.00     293.00     3.197E-06  5.963E-06     9.160E-07   9.160E-06
 293.00     294.00     1.227E-05  2.349E-05     3.576E-06   3.576E-05
 294.00     295.00     2.914E-05  5.559E-05     8.473E-06   8.473E-05
 295.00     296.00     9.260E-05  1.808E-04     2.734E-05   2.734E-04
 296.00     297.00     1.964E-04  3.833E-04     5.797E-05   5.797E-04
 297.00     298.00     4.468E-04  8.892E-04     1.336E-04   1.336E-03
 298.00     299.00     6.160E-04  1.224E-03     1.840E-04   1.840E-03
 299.00     300.00     1.576E-03  3.182E-03     4.758E-04   4.758E-03
 300.00     301.00     1.645E-03  3.301E-03     4.946E-04   4.946E-03
 301.00     302.00     3.661E-03  7.461E-03     1.112E-03   1.112E-02
 302.00     303.00     4.938E-03  9.996E-03     1.493E-03   1.493E-02
 303.00     304.00     9.224E-03  1.888E-02     2.811E-03   2.811E-02
 304.00     305.00     1.069E-02  2.167E-02     3.236E-03   3.236E-02
 305.00     306.00     1.529E-02  3.138E-02     4.667E-03   4.667E-02
 306.00     307.00     1.664E-02  3.369E-02     5.034E-03   5.034E-02
 307.00     308.00     2.565E-02  5.217E-02     7.782E-03   7.782E-02
 308.00     309.00     2.970E-02  6.000E-02     8.969E-03   8.969E-02
 309.00     310.00     2.744E-02  5.509E-02     8.252E-03   8.252E-02
 310.00     311.00     3.876E-02  7.753E-02     1.163E-02   1.163E-01
 311.00     312.00     5.131E-02  1.017E-01     1.530E-02   1.530E-01
 312.00     313.00     5.205E-02  1.028E-01     1.548E-02   1.548E-01
 313.00     314.00     6.016E-02  1.172E-01     1.773E-02   1.773E-01
 314.00     315.00     6.217E-02  1.206E-01     1.828E-02   1.828E-01
 315.00     316.00     6.524E-02  1.248E-01     1.901E-02   1.901E-01
 316.00     317.00     6.677E-02  1.273E-01     1.941E-02   1.941E-01
 317.00     318.00     9.559E-02  1.792E-01     2.747E-02   2.747E-01
 318.00     319.00     7.708E-02  1.438E-01     2.209E-02   2.209E-01
 319.00     320.00     9.539E-02  1.755E-01     2.709E-02   2.709E-01
 320.00     321.00     1.178E-01  2.137E-01     3.314E-02   3.314E-01
 321.00     322.00     1.022E-01  1.846E-01     2.868E-02   2.868E-01
 322.00     323.00     1.033E-01  1.818E-01     2.850E-02   2.850E-01
 323.00     324.00     1.088E-01  1.914E-01     3.002E-02   3.002E-01
 324.00     325.00     1.291E-01  2.233E-01     3.524E-02   3.524E-01
 325.00     326.00     1.461E-01  2.481E-01     3.942E-02   3.942E-01
 326.00     327.00     1.798E-01  3.039E-01     4.838E-02   4.838E-01
 327.00     328.00     1.689E-01  2.801E-01     4.490E-02   4.490E-01
 328.00     329.00     1.576E-01  2.573E-01     4.149E-02   4.149E-01
 329.00     330.00     2.072E-01  3.359E-01     5.431E-02   5.431E-01
 330.00     331.00     1.900E-01  3.023E-01     4.923E-02   4.923E-01
 331.00     332.00     1.896E-01  2.969E-01     4.864E-02   4.864E-01
 332.00     333.00     1.890E-01  2.933E-01     4.823E-02   4.823E-01
 333.00     334.00     1.791E-01  2.732E-01     4.523E-02   4.523E-01
 334.00     335.00     2.021E-01  3.042E-01     5.063E-02   5.063E-01
 335.00     336.00     2.070E-01  3.079E-01     5.149E-02   5.149E-01
 336.00     337.00     1.632E-01  2.392E-01     4.024E-02   4.024E-01
 337.00     338.00     1.807E-01  2.605E-01     4.412E-02   4.412E-01
 338.00     339.00     1.926E-01  2.746E-01     4.672E-02   4.672E-01
 339.00     340.00     2.112E-01  2.971E-01     5.083E-02   5.083E-01
 340.00     341.00     2.277E-01  3.155E-01     5.432E-02   5.432E-01
 341.00     342.00     2.040E-01  2.793E-01     4.834E-02   4.834E-01
 342.00     343.00     2.279E-01  3.079E-01     5.358E-02   5.358E-01
 343.00     344.00     2.386E-01  3.180E-01     5.566E-02   5.566E-01
 344.00     345.00     1.686E-01  2.215E-01     3.901E-02   3.901E-01
 345.00     346.00     2.329E-01  3.025E-01     5.354E-02   5.354E-01
 346.00     347.00     2.195E-01  2.812E-01     5.007E-02   5.007E-01
 347.00     348.00     2.161E-01  2.734E-01     4.895E-02   4.895E-01
 348.00     349.00     2.393E-01  2.990E-01     5.383E-02   5.383E-01
 349.00     350.00     2.021E-01  2.492E-01     4.513E-02   4.513E-01
 350.00     351.00     2.850E-01  3.472E-01     6.321E-02   6.321E-01
 351.00     352.00     2.474E-01  2.976E-01     5.450E-02   5.450E-01
 352.00     353.00     2.247E-01  2.671E-01     4.917E-02   4.917E-01
 353.00     354.00     2.723E-01  3.199E-01     5.922E-02   5.922E-01
 354.00     355.00     2.968E-01  3.445E-01     6.413E-02   6.413E-01
 355.00     356.00     2.792E-01  3.203E-01     5.995E-02   5.995E-01
 356.00     357.00     2.609E-01  2.957E-01     5.565E-02   5.565E-01
 357.00     358.00     2.233E-01  2.501E-01     4.734E-02   4.734E-01
 358.00     359.00     1.734E-01  1.920E-01     3.655E-02   3.655E-01
 359.00     360.00     2.937E-01  3.216E-01     6.152E-02   6.152E-01
 360.00     361.00     2.739E-01  2.965E-01     5.705E-02   5.705E-01
 361.00     362.00     2.485E-01  2.660E-01     5.145E-02   5.145E-01
 362.00     363.00     2.936E-01  3.108E-01     6.044E-02   6.044E-01
 363.00     364.00     2.627E-01  2.751E-01     5.378E-02   5.378E-01
 364.00     365.00     2.883E-01  2.986E-01     5.869E-02   5.869E-01
 365.00     366.00     3.534E-01  3.620E-01     7.153E-02   7.153E-01
 366.00     367.00     3.761E-01  3.812E-01     7.573E-02   7.573E-01
 367.00     368.00     3.591E-01  3.601E-01     7.192E-02   7.192E-01
 368.00     369.00     3.173E-01  3.148E-01     6.320E-02   6.320E-01
 369.00     370.00     3.827E-01  3.757E-01     7.584E-02   7.584E-01
 370.00     371.00     3.491E-01  3.392E-01     6.882E-02   6.882E-01
 371.00     372.00     4.015E-01  3.862E-01     7.877E-02   7.877E-01
 372.00     373.00     2.982E-01  2.839E-01     5.820E-02   5.820E-01
 373.00     374.00     2.709E-01  2.553E-01     5.263E-02   5.263E-01
 374.00     375.00     2.989E-01  2.789E-01     5.777E-02   5.777E-01
 375.00     376.00     3.389E-01  3.131E-01     6.520E-02   6.520E-01
 376.00     377.00     3.402E-01  3.112E-01     6.513E-02   6.513E-01
 377.00     378.00     4.071E-01  3.687E-01     7.758E-02   7.758E-01
 378.00     379.00     4.458E-01  4.000E-01     8.458E-02   8.458E-01
 379.00     380.00     3.314E-01  2.945E-01     6.259E-02   6.259E-01
 380.00     381.00     4.005E-01  3.525E-01     7.530E-02   7.530E-01
 381.00     382.00     3.781E-01  3.297E-01     7.078E-02   7.078E-01
 382.00     383.00     2.531E-01  2.186E-01     4.717E-02   4.717E-01
 383.00     384.00     2.233E-01  1.911E-01     4.144E-02   4.144E-01
 384.00     385.00     3.366E-01  2.854E-01     6.220E-02   6.220E-01
 385.00     386.00     3.345E-01  2.810E-01     6.156E-02   6.156E-01
 386.00     387.00     3.425E-01  2.851E-01     6.277E-02   6.277E-01
 387.00     388.00     3.197E-01  2.638E-01     5.835E-02   5.835E-01
 388.00     389.00     3.218E-01  2.632E-01     5.850E-02   5.850E-01
 389.00     390.00     4.076E-01  3.304E-01     7.380E-02   7.380E-01
 390.00     391.00     4.020E-01  3.230E-01     7.250E-02   7.250E-01
 391.00     392.00     4.790E-01  3.814E-01     8.604E-02   8.604E-01
 392.00     393.00     3.606E-01  2.847E-01     6.454E-02   6.454E-01
 393.00     394.00     1.574E-01  1.232E-01     2.807E-02   2.807E-01
 394.00     395.00     3.719E-01  2.887E-01     6.606E-02   6.606E-01
 395.00     396.00     4.805E-01  3.698E-01     8.502E-02   8.502E-01
 396.00     397.00     2.832E-01  2.162E-01     4.994E-02   4.994E-01
 397.00     398.00     3.281E-01  2.483E-01     5.764E-02   5.764E-01
 398.00     399.00     5.660E-01  4.248E-01     9.908E-02   9.908E-01
 399.00     400.00     5.909E-01  4.399E-01     1.031E-01   1.031E+00
 \nWEIGHTED IRRADIANCES (W m-2)
 (with normalized action spectra)\n
   1 UV-B, 280-315 nm                          1.232E+00
   2 UV-B*, 280-320 nm                         2.382E+00
   3 UV-A, 315-400 nm                          4.663E+01
   4 vis+, > 400 nm                            0.000E+00
   5 Gaussian, 305 nm, 10 nm FWHM              5.115E-02
   6 Gaussian, 320 nm, 10 nm FWHM              2.794E-01
   7 Gaussian, 340 nm, 10 nm FWHM              4.911E-01
   8 Gaussian, 380 nm, 10 nm FWHM              6.504E-01
   9 RB Meter, model 501                       3.517E-01
  10 Eppley UV Photometer                      4.011E+01
  11 PAR, 400-700 nm, umol m-2 s-1             0.000E+00
  12 Exponential decay, 14 nm/10               4.142E-01
  13 DNA damage, in vitro (Setlow, 1974)       3.340E-03
  14 SCUP-mice (de Gruijl et al., 1993)        2.211E-01
  15 SCUP-human (de Gruijl and van der Leun,   3.887E-01
  16 Standard human erythema (Webb et al., 20  1.646E-01
  17 UV index (WMO, 1994; Webb et al., 2011)   6.583E+00
  18 Erythema, humans (Anders et al., 1995)    7.124E-04
  19 Occupational TLV (ACGIH, 1992)            4.094E-02
  20 Phytoplankton (Boucher et al., 1994)      3.091E-03
  21 Phytoplankton, phaeo (Cullen et al., 199  1.236E-03
  22 Phytoplankton, proro (Cullen et al., 199  1.136E-03
  23 Cataract, pig (Oriowo et al., 2001)       5.130E-01
  24 Plant damage (Caldwell, 1971)             1.857E-01
  25 Plant damage,Flint&Caldwell,2003,orig.    7.836E-01
  26 Plant damage,Flint&Caldwell,2003,ext390   1.117E+00
  27 Previtamin-D3 (CIE 2006)                  3.163E-01
  28 NMSC (CIE 2006)                           3.666E-01
  29 Ebola virus inactivation                  1.114E+00
